*RAS_DATA_START
*RAS_HEADER_START
*ATMOSPHERE_TEMP_DATAOUT "0.0000000000"
*ATMOSPHERE_TEMP_END "20.0140000000"
*ATMOSPHERE_TEMP_START "20.0170000000"
*ATMOSPHERE_TEMP_UNIT "K"
*ATMOSPHERE_TEMP_UNIT_DISP "1.0000000000"
*DISP_FMT_X "%.3f"
*DISP_FMT_Y "%.0f"
*DISP_FULLSCALE "2342.4647837397"
*DISP_LINE_COLOR "255.0000000000"
*DISP_LINE_STYLE "0.0000000000"
*DISP_LINE_WIDTH "0.2500000000"
*DISP_NOTE "Collected Data-5"
*DISP_OFFSET_Y "0.0000000000"
*DISP_PEAKSEARCH_UNIT_Y "cps"
*DISP_RANGE_BOTTOM "0.0000000000"
*DISP_RANGE_LEFT "30.0000000000"
*DISP_RANGE_LOGCUTOFF "0.0100000000"
*DISP_RANGE_RIGHT "80.0000000000"
*DISP_RANGE_TOP "2342.4647837397"
*DISP_SCALE_MODE_Y "0.0000000000"
*DISP_TAB_NAME "Theta/2-Theta"
*DISP_TITLE_Y "Intensity"
*DISP_UNIT_Y "cps"
*DISP_WINDOW_NAME "MSG_MACROENGINE"
*FILE_COMMENT " "
*FILE_MD5 ""
*FILE_MEMO " "
*FILE_OPERATOR "administrator"
*FILE_PART_ID "MEAS_KHP2_00068"
*FILE_SAMPLE " "
*FILE_TYPE "RAS_RAW"
*FILE_USERGROUP "System Manager"
*FILE_VERSION "1.0000000000"
*HW_ATTACHMENT_ID "ATT0097"
*HW_ATTACHMENT_NAME "極低温アタッチメント(Z)-4K|Ultra-Low Temp. Att.(Z)-4K"
*HW_COUNTER_ID-0 "CUT0021"
*HW_COUNTER_ID-1 "CUT0051"
*HW_COUNTER_ID-2 "CUT0020"
*HW_COUNTER_ID-3 "CSL0021"
*HW_COUNTER_ID-4 "CMC0021"
*HW_COUNTER_NAME-0 "SC-70|SC-70"
*HW_COUNTER_NAME-1 "HyPix 3000(H)|HyPix 3000(H)"
*HW_COUNTER_NAME-2 "None|None"
*HW_COUNTER_NAME-3 "BBM|BBM"
*HW_COUNTER_NAME-4 "検出器モノクロメータ|Detector monochromator"
*HW_COUNTER_SELECT_NAME "HyPix 3000(H)|HyPix 3000(H)"
*HW_GONIOMETER_ID "GON0023"
*HW_GONIOMETER_NAME "SmartLab|SmartLab"
*HW_GONIOMETER_RADIUS-0 "90.0"
*HW_GONIOMETER_RADIUS-1 "114.0"
*HW_GONIOMETER_RADIUS-2 "190.0"
*HW_GONIOMETER_RADIUS-3 "300.0"
*HW_GONIOMETER_RADIUS-4 "187.0"
*HW_GONIOMETER_RADIUS-5 "300.0"
*HW_GONIOMETER_RADIUS-6 "113.0"
*HW_GONIOMETER_RADIUS-7 "331.0"
*HW_I_OPT_ID-0 "CBO0021"
*HW_I_OPT_ID-1 "ICR0023"
*HW_I_OPT_ID-2 "ISL0021"
*HW_I_OPT_ID-3 "ISO0021"
*HW_I_OPT_ID-4 "IAD0021"
*HW_I_OPT_ID-5 "IPR0001"
*HW_I_OPT_NAME-0 "CBOユニット|CBO unit"
*HW_I_OPT_NAME-1 "標準入射光学ユニット|Standard incident optical unit"
*HW_I_OPT_NAME-2 "標準入射スリットボックス|Standard incident slit box"
*HW_I_OPT_NAME-3 "入射平行スリット|Incident parallel slit"
*HW_I_OPT_NAME-4 "長手制限スリット|Length limiting slit"
*HW_I_OPT_NAME-5 "None|None"
*HW_R_ATTENUATER_AUTOMODE "0"
*HW_R_OPT_ID-0 "RSS0022"
*HW_R_OPT_ID-1 "RCR0022"
*HW_R_OPT_ID-2 "RSO0021"
*HW_R_OPT_ID-3 "RRS0022"
*HW_R_OPT_ID-4 "ATN0020"
*HW_R_OPT_ID-5 "RFL0021"
*HW_R_OPT_ID-6 "RAD0021"
*HW_R_OPT_NAME-0 "受光スリットボックス1(Zr軸付)|Receiving slit box # 1 (w/ Zr Axis)"
*HW_R_OPT_NAME-1 "標準受光光学ユニット1|Standard receiving unit # 1"
*HW_R_OPT_NAME-2 "標準受光光学ユニット2|Standard receiving optical unit # 2"
*HW_R_OPT_NAME-3 "仮想受光スリット2|Virtual receiving slit #2"
*HW_R_OPT_NAME-4 "無し|None"
*HW_R_OPT_NAME-5 "Cu Kβ|Cu K-beta"
*HW_R_OPT_NAME-6 "調整用受光スリット|Alignment receiving slit"
*HW_SAMPLE_HOLDER_ID "SMP0020"
*HW_SAMPLE_HOLDER_NAME "無し|None"
*HW_XG_CURRENT_MAX "50"
*HW_XG_CURRENT_MIN "2"
*HW_XG_CURRENT_RESOLUTION "1"
*HW_XG_CURRENT_UNIT "mA"
*HW_XG_FOCUS "0.4mm x 8mm"
*HW_XG_FOCUS_TYPE "Fine"
*HW_XG_ID "1200"
*HW_XG_NAME "3kW 封入管(ID:1200)|3kW Sealed tube(ID:1200)"
*HW_XG_TARGET_ATOMIC_NUMBER "29.0000000000"
*HW_XG_TARGET_NAME "Cu"
*HW_XG_TYPE "Hermetic"
*HW_XG_VOLTAGE_MAX "50"
*HW_XG_VOLTAGE_MIN "20"
*HW_XG_VOLTAGE_RESOLUTION "1"
*HW_XG_VOLTAGE_UNIT "kV"
*HW_XG_WATT_MAX "1.500"
*HW_XG_WATT_UNIT "kW"
*HW_XG_WAVE_LENGTH_ALPHA1 "1.540593"
*HW_XG_WAVE_LENGTH_ALPHA2 "1.544414"
*HW_XG_WAVE_LENGTH_BETA "1.392250"
*MEAS_COND_AXIS_NAME-0 "Theta/2-Theta"
*MEAS_COND_AXIS_NAME-1 "2-Theta"
*MEAS_COND_AXIS_NAME-2 "Omega"
*MEAS_COND_AXIS_NAME-3 "Z"
*MEAS_COND_AXIS_NAME-4 "2-Theta/Omega"
*MEAS_COND_AXIS_NAME-5 "Theta_s"
*MEAS_COND_AXIS_NAME-6 "Theta_d"
*MEAS_COND_AXIS_NAME-7 "Ts"
*MEAS_COND_AXIS_NAME-8 "CBO selection slit"
*MEAS_COND_AXIS_NAME-9 "M"
*MEAS_COND_AXIS_NAME-10 "Incident parallel slit"
*MEAS_COND_AXIS_NAME-11 "Incident slit"
*MEAS_COND_AXIS_NAME-12 ""
*MEAS_COND_AXIS_NAME-13 "Zs"
*MEAS_COND_AXIS_NAME-14 "Incident monochromator"
*MEAS_COND_AXIS_NAME-15 "Length limiting slit"
*MEAS_COND_AXIS_NAME-16 "Center slit"
*MEAS_COND_AXIS_NAME-17 "Filter"
*MEAS_COND_AXIS_NAME-18 "Receiving slit # 1"
*MEAS_COND_AXIS_NAME-19 "Receiving slit # 2"
*MEAS_COND_AXIS_NAME-20 "Receiving optical device"
*MEAS_COND_AXIS_NAME-21 "Receiving parallel slit"
*MEAS_COND_AXIS_NAME-22 "Alignment receiving slit"
*MEAS_COND_AXIS_NAME-23 ""
*MEAS_COND_AXIS_NAME-24 ""
*MEAS_COND_AXIS_NAME-25 "Zd"
*MEAS_COND_AXIS_NAME-26 "Attenuator"
*MEAS_COND_AXIS_NAME-27 "Diffracted beam monochromator"
*MEAS_COND_AXIS_NAME-28 "Monochromator slit"
*MEAS_COND_AXIS_NAME-29 "Zr"
*MEAS_COND_AXIS_NAME-30 "Primary beam"
*MEAS_COND_AXIS_NAME-31 "Temperature"
*MEAS_COND_AXIS_NAME-32 "Temperature2"
*MEAS_COND_AXIS_NAME_INTERNAL-0 "TwoThetaTheta"
*MEAS_COND_AXIS_NAME_INTERNAL-1 "TwoTheta"
*MEAS_COND_AXIS_NAME_INTERNAL-2 "Omega"
*MEAS_COND_AXIS_NAME_INTERNAL-3 "Z"
*MEAS_COND_AXIS_NAME_INTERNAL-4 "TwoThetaOmega"
*MEAS_COND_AXIS_NAME_INTERNAL-5 "ThetaS"
*MEAS_COND_AXIS_NAME_INTERNAL-6 "ThetaD"
*MEAS_COND_AXIS_NAME_INTERNAL-7 "Ts"
*MEAS_COND_AXIS_NAME_INTERNAL-8 "CBO"
*MEAS_COND_AXIS_NAME_INTERNAL-9 "CBO-M"
*MEAS_COND_AXIS_NAME_INTERNAL-10 "IncidentSollerSlit"
*MEAS_COND_AXIS_NAME_INTERNAL-11 "IncidentSlitBox"
*MEAS_COND_AXIS_NAME_INTERNAL-12 "IncidentSlitBox-_Axis"
*MEAS_COND_AXIS_NAME_INTERNAL-13 "Zs"
*MEAS_COND_AXIS_NAME_INTERNAL-14 "IncidentMonochromator"
*MEAS_COND_AXIS_NAME_INTERNAL-15 "IncidentAxdSlit"
*MEAS_COND_AXIS_NAME_INTERNAL-16 "CenterSlit"
*MEAS_COND_AXIS_NAME_INTERNAL-17 "Filter"
*MEAS_COND_AXIS_NAME_INTERNAL-18 "ReceivingSlitBox1"
*MEAS_COND_AXIS_NAME_INTERNAL-19 "ReceivingSlitBox2"
*MEAS_COND_AXIS_NAME_INTERNAL-20 "ReceivingOptics"
*MEAS_COND_AXIS_NAME_INTERNAL-21 "ReceivingSollerSlit"
*MEAS_COND_AXIS_NAME_INTERNAL-22 "ReceivingAxdSlit"
*MEAS_COND_AXIS_NAME_INTERNAL-23 "ReceivingSlitBox1-_Axis"
*MEAS_COND_AXIS_NAME_INTERNAL-24 "ReceivingSlitBox2-_Axis"
*MEAS_COND_AXIS_NAME_INTERNAL-25 "ReceivingSlitBox2-Zd"
*MEAS_COND_AXIS_NAME_INTERNAL-26 "Attenuator"
*MEAS_COND_AXIS_NAME_INTERNAL-27 "CounterMonochromator"
*MEAS_COND_AXIS_NAME_INTERNAL-28 "CounterSlit"
*MEAS_COND_AXIS_NAME_INTERNAL-29 "ReceivingSlitBox1-Zr"
*MEAS_COND_AXIS_NAME_INTERNAL-30 "IncidentPrimary"
*MEAS_COND_AXIS_NAME_INTERNAL-31 "Temperature"
*MEAS_COND_AXIS_NAME_INTERNAL-32 "Temperature2"
*MEAS_COND_AXIS_NAME_MAGICNO-0 "83951616.0000000000"
*MEAS_COND_AXIS_NAME_MAGICNO-1 "268632064.0000000000"
*MEAS_COND_AXIS_NAME_MAGICNO-2 "268500992.0000000000"
*MEAS_COND_AXIS_NAME_MAGICNO-3 "285278208.0000000000"
*MEAS_COND_AXIS_NAME_MAGICNO-4 "83951616.0000000000"
*MEAS_COND_AXIS_NAME_MAGICNO-5 "131072.0000000000"
*MEAS_COND_AXIS_NAME_MAGICNO-6 "131072.0000000000"
*MEAS_COND_AXIS_NAME_MAGICNO-7 "318898176.0000000000"
*MEAS_COND_AXIS_NAME_MAGICNO-8 "20971521.0000000000"
*MEAS_COND_AXIS_NAME_MAGICNO-9 "285343744.0000000000"
*MEAS_COND_AXIS_NAME_MAGICNO-10 "20971521.0000000000"
*MEAS_COND_AXIS_NAME_MAGICNO-11 "22020097.0000000000"
*MEAS_COND_AXIS_NAME_MAGICNO-12 "25165824.0000000000"
*MEAS_COND_AXIS_NAME_MAGICNO-13 "318898176.0000000000"
*MEAS_COND_AXIS_NAME_MAGICNO-14 "1.0000000000"
*MEAS_COND_AXIS_NAME_MAGICNO-15 "20971521.0000000000"
*MEAS_COND_AXIS_NAME_MAGICNO-16 "20971521.0000000000"
*MEAS_COND_AXIS_NAME_MAGICNO-17 "20971521.0000000000"
*MEAS_COND_AXIS_NAME_MAGICNO-18 "23068673.0000000000"
*MEAS_COND_AXIS_NAME_MAGICNO-19 "23068673.0000000000"
*MEAS_COND_AXIS_NAME_MAGICNO-20 "20971521.0000000000"
*MEAS_COND_AXIS_NAME_MAGICNO-21 "20971521.0000000000"
*MEAS_COND_AXIS_NAME_MAGICNO-22 "20971521.0000000000"
*MEAS_COND_AXIS_NAME_MAGICNO-23 "25165824.0000000000"
*MEAS_COND_AXIS_NAME_MAGICNO-24 "25165824.0000000000"
*MEAS_COND_AXIS_NAME_MAGICNO-25 "285343744.0000000000"
*MEAS_COND_AXIS_NAME_MAGICNO-26 "0.0000000000"
*MEAS_COND_AXIS_NAME_MAGICNO-27 "20971521.0000000000"
*MEAS_COND_AXIS_NAME_MAGICNO-28 "20971521.0000000000"
*MEAS_COND_AXIS_NAME_MAGICNO-29 "285343744.0000000000"
*MEAS_COND_AXIS_NAME_MAGICNO-30 "20971521.0000000000"
*MEAS_COND_AXIS_NAME_MAGICNO-31 "0.0000000000"
*MEAS_COND_AXIS_NAME_MAGICNO-32 "0.0000000000"
*MEAS_COND_AXIS_OFFSET-0 "-"
*MEAS_COND_AXIS_OFFSET-1 "0.1390000000"
*MEAS_COND_AXIS_OFFSET-2 "0.0531000000"
*MEAS_COND_AXIS_OFFSET-3 "-"
*MEAS_COND_AXIS_OFFSET-4 "-"
*MEAS_COND_AXIS_OFFSET-5 "0.0531000000"
*MEAS_COND_AXIS_OFFSET-6 "0.0859000000"
*MEAS_COND_AXIS_OFFSET-7 "-"
*MEAS_COND_AXIS_OFFSET-8 "-"
*MEAS_COND_AXIS_OFFSET-9 "-"
*MEAS_COND_AXIS_OFFSET-10 "-"
*MEAS_COND_AXIS_OFFSET-11 "-"
*MEAS_COND_AXIS_OFFSET-12 "-"
*MEAS_COND_AXIS_OFFSET-13 "-"
*MEAS_COND_AXIS_OFFSET-14 "-"
*MEAS_COND_AXIS_OFFSET-15 "-"
*MEAS_COND_AXIS_OFFSET-16 "-"
*MEAS_COND_AXIS_OFFSET-17 "-"
*MEAS_COND_AXIS_OFFSET-18 "-"
*MEAS_COND_AXIS_OFFSET-19 "-"
*MEAS_COND_AXIS_OFFSET-20 "-"
*MEAS_COND_AXIS_OFFSET-21 "-"
*MEAS_COND_AXIS_OFFSET-22 "-"
*MEAS_COND_AXIS_OFFSET-23 "-"
*MEAS_COND_AXIS_OFFSET-24 "-"
*MEAS_COND_AXIS_OFFSET-25 "-"
*MEAS_COND_AXIS_OFFSET-26 "-"
*MEAS_COND_AXIS_OFFSET-27 "-"
*MEAS_COND_AXIS_OFFSET-28 "-"
*MEAS_COND_AXIS_OFFSET-29 "-"
*MEAS_COND_AXIS_OFFSET-30 "-"
*MEAS_COND_AXIS_OFFSET-31 "0.0000000000"
*MEAS_COND_AXIS_OFFSET-32 "0.0000000000"
*MEAS_COND_AXIS_POSITION-0 "0.0000000000"
*MEAS_COND_AXIS_POSITION-1 "0.0000000000"
*MEAS_COND_AXIS_POSITION-2 "0.0000000000"
*MEAS_COND_AXIS_POSITION-3 "0.6224000000"
*MEAS_COND_AXIS_POSITION-4 "0.0000000000"
*MEAS_COND_AXIS_POSITION-5 "0.0000000000"
*MEAS_COND_AXIS_POSITION-6 "0.0000000000"
*MEAS_COND_AXIS_POSITION-7 "-0.5445000000"
*MEAS_COND_AXIS_POSITION-8 "BB"
*MEAS_COND_AXIS_POSITION-9 "0.0000000000"
*MEAS_COND_AXIS_POSITION-10 "Soller_slit_5.0deg"
*MEAS_COND_AXIS_POSITION-11 "1/2deg"
*MEAS_COND_AXIS_POSITION-12 "1.6581000000"
*MEAS_COND_AXIS_POSITION-13 "-0.2778100000"
*MEAS_COND_AXIS_POSITION-14 "0.0000000000"
*MEAS_COND_AXIS_POSITION-15 "15.0mm"
*MEAS_COND_AXIS_POSITION-16 "None"
*MEAS_COND_AXIS_POSITION-17 "Cu_K-beta"
*MEAS_COND_AXIS_POSITION-18 "1/2deg"
*MEAS_COND_AXIS_POSITION-19 "0.300mm"
*MEAS_COND_AXIS_POSITION-20 "PSA_open"
*MEAS_COND_AXIS_POSITION-21 "Soller_slit_5.0deg"
*MEAS_COND_AXIS_POSITION-22 "None"
*MEAS_COND_AXIS_POSITION-23 "0.9862000000"
*MEAS_COND_AXIS_POSITION-24 "0.3000000000"
*MEAS_COND_AXIS_POSITION-25 "0.0000000000"
*MEAS_COND_AXIS_POSITION-26 "-"
*MEAS_COND_AXIS_POSITION-27 "No_unit"
*MEAS_COND_AXIS_POSITION-28 "None"
*MEAS_COND_AXIS_POSITION-29 "0.0650000000"
*MEAS_COND_AXIS_POSITION-30 "None"
*MEAS_COND_AXIS_POSITION-31 "20.0050000000"
*MEAS_COND_AXIS_POSITION-32 "20.0140000000"
*MEAS_COND_AXIS_UNIT-0 "deg"
*MEAS_COND_AXIS_UNIT-1 "deg"
*MEAS_COND_AXIS_UNIT-2 "deg"
*MEAS_COND_AXIS_UNIT-3 "mm"
*MEAS_COND_AXIS_UNIT-4 "deg"
*MEAS_COND_AXIS_UNIT-5 "deg"
*MEAS_COND_AXIS_UNIT-6 "deg"
*MEAS_COND_AXIS_UNIT-7 "mm"
*MEAS_COND_AXIS_UNIT-8 ""
*MEAS_COND_AXIS_UNIT-9 "pulse"
*MEAS_COND_AXIS_UNIT-10 ""
*MEAS_COND_AXIS_UNIT-11 ""
*MEAS_COND_AXIS_UNIT-12 "mm"
*MEAS_COND_AXIS_UNIT-13 "mm"
*MEAS_COND_AXIS_UNIT-14 ""
*MEAS_COND_AXIS_UNIT-15 ""
*MEAS_COND_AXIS_UNIT-16 ""
*MEAS_COND_AXIS_UNIT-17 ""
*MEAS_COND_AXIS_UNIT-18 ""
*MEAS_COND_AXIS_UNIT-19 ""
*MEAS_COND_AXIS_UNIT-20 ""
*MEAS_COND_AXIS_UNIT-21 ""
*MEAS_COND_AXIS_UNIT-22 ""
*MEAS_COND_AXIS_UNIT-23 "mm"
*MEAS_COND_AXIS_UNIT-24 "mm"
*MEAS_COND_AXIS_UNIT-25 "mm"
*MEAS_COND_AXIS_UNIT-26 ""
*MEAS_COND_AXIS_UNIT-27 ""
*MEAS_COND_AXIS_UNIT-28 ""
*MEAS_COND_AXIS_UNIT-29 "mm"
*MEAS_COND_AXIS_UNIT-30 ""
*MEAS_COND_AXIS_UNIT-31 "K"
*MEAS_COND_AXIS_UNIT-32 "K"
*MEAS_COND_COUNTER_CNTLOSS_CORR "0.0000000000"
*MEAS_COND_COUNTER_TAUDIFF "0.0000000000"
*MEAS_COND_COUNTER_TAUINT "0.0000000000"
*MEAS_COND_COUNTER_TEMP_CONDITION "NORMAL"
*MEAS_COND_IRRADIATION_MODE "OFF"
*MEAS_COND_IRRADIATION_WIDTH ""
*MEAS_COND_OPT_ATTR "Bragg-Brentano focusing"
*MEAS_COND_OPT_NAME "@BB focusing"
*MEAS_COND_UNSYMMETRIC_MODE "OFF"
*MEAS_COND_XG_CURRENT "30.0000000000"
*MEAS_COND_XG_VOLTAGE "40.0000000000"
*MEAS_COND_XG_WAVE_TYPE "Ka"
*MEAS_DATA_COUNT "2501.0000000000"
*MEAS_SCAN_AXIS_X "Theta/2-Theta"
*MEAS_SCAN_AXIS_X_INTERNAL "TwoThetaTheta"
*MEAS_SCAN_END_TIME "02/17/20 21:56:55"
*MEAS_SCAN_MODE "CONTINUOUS"
*MEAS_SCAN_MONITOR "0"
*MEAS_SCAN_RESOLUTION_X "0.0002"
*MEAS_SCAN_SPEED "0.301163"
*MEAS_SCAN_SPEED_UNIT "deg/min"
*MEAS_SCAN_SPEED_USER "0.3"
*MEAS_SCAN_START "30.0000000000"
*MEAS_SCAN_START_TIME "02/17/20 19:09:43"
*MEAS_SCAN_STEP "0.0200000000"
*MEAS_SCAN_STOP "80.0000000000"
*MEAS_SCAN_UNIT_X "deg"
*MEAS_SCAN_UNIT_Y "counts"
*RAS_HEADER_END
*RAS_INT_START
30.0000 692.7376 1.0000
30.0200 640.1424 1.0000
30.0400 671.8259 1.0000
30.0600 681.4549 1.0000
30.0800 631.2296 1.0000
30.1000 689.5626 1.0000
30.1200 677.3294 1.0000
30.1400 630.4293 1.0000
30.1600 621.3306 1.0000
30.1800 671.2909 1.0000
30.2000 610.2780 1.0000
30.2200 663.0557 1.0000
30.2400 700.6889 1.0000
30.2600 681.1597 1.0000
30.2800 688.3794 1.0000
30.3000 707.3271 1.0000
30.3200 672.7638 1.0000
30.3400 695.1555 1.0000
30.3600 681.5953 1.0000
30.3800 667.8080 1.0000
30.4000 655.0019 1.0000
30.4200 717.6505 1.0000
30.4400 646.1850 1.0000
30.4600 671.4501 1.0000
30.4800 647.1061 1.0000
30.5000 713.5643 1.0000
30.5200 705.0184 1.0000
30.5400 727.3461 1.0000
30.5600 685.7313 1.0000
30.5800 680.2587 1.0000
30.6000 690.9938 1.0000
30.6200 655.1263 1.0000
30.6400 722.7886 1.0000
30.6600 706.0333 1.0000
30.6800 659.5242 1.0000
30.7000 672.1174 1.0000
30.7200 647.6071 1.0000
30.7400 650.0739 1.0000
30.7600 689.7072 1.0000
30.7800 681.5051 1.0000
30.8000 637.6383 1.0000
30.8200 634.0549 1.0000
30.8400 682.9489 1.0000
30.8600 671.9197 1.0000
30.8800 607.5319 1.0000
30.9000 734.4382 1.0000
30.9200 685.7358 1.0000
30.9400 725.0206 1.0000
30.9600 687.2841 1.0000
30.9800 671.9376 1.0000
31.0000 667.1947 1.0000
31.0200 695.4824 1.0000
31.0400 674.9540 1.0000
31.0600 681.4606 1.0000
31.0800 650.3080 1.0000
31.1000 694.3784 1.0000
31.1200 713.3279 1.0000
31.1400 665.9982 1.0000
31.1600 698.7830 1.0000
31.1800 646.9435 1.0000
31.2000 725.0849 1.0000
31.2200 696.5282 1.0000
31.2400 647.0586 1.0000
31.2600 680.8668 1.0000
31.2800 697.2540 1.0000
31.3000 692.2898 1.0000
31.3200 668.2209 1.0000
31.3400 671.0449 1.0000
31.3600 676.1316 1.0000
31.3800 612.5591 1.0000
31.4000 675.2723 1.0000
31.4200 639.0787 1.0000
31.4400 705.9496 1.0000
31.4600 662.7517 1.0000
31.4800 646.0880 1.0000
31.5000 663.2081 1.0000
31.5200 620.7343 1.0000
31.5400 656.9448 1.0000
31.5600 638.7582 1.0000
31.5800 638.4813 1.0000
31.6000 693.3441 1.0000
31.6200 654.9790 1.0000
31.6400 657.1722 1.0000
31.6600 694.1839 1.0000
31.6800 673.6330 1.0000
31.7000 701.7269 1.0000
31.7200 646.6535 1.0000
31.7400 676.8931 1.0000
31.7600 646.6091 1.0000
31.7800 646.9993 1.0000
31.8000 637.7183 1.0000
31.8200 675.0705 1.0000
31.8400 695.5049 1.0000
31.8600 699.4771 1.0000
31.8800 687.0856 1.0000
31.9000 677.1108 1.0000
31.9200 670.9069 1.0000
31.9400 673.6808 1.0000
31.9600 664.6264 1.0000
31.9800 658.7006 1.0000
32.0000 700.6173 1.0000
32.0200 704.4513 1.0000
32.0400 656.4951 1.0000
32.0600 683.7269 1.0000
32.0800 631.9273 1.0000
32.1000 637.2922 1.0000
32.1200 658.8760 1.0000
32.1400 669.7393 1.0000
32.1600 683.1711 1.0000
32.1800 693.8082 1.0000
32.2000 664.9250 1.0000
32.2200 670.3398 1.0000
32.2400 654.4954 1.0000
32.2600 641.8636 1.0000
32.2800 723.9933 1.0000
32.3000 676.2260 1.0000
32.3200 657.3896 1.0000
32.3400 662.2262 1.0000
32.3600 675.6747 1.0000
32.3800 628.7252 1.0000
32.4000 640.7121 1.0000
32.4200 658.0939 1.0000
32.4400 639.3281 1.0000
32.4600 665.5193 1.0000
32.4800 691.8033 1.0000
32.5000 695.1373 1.0000
32.5200 664.4373 1.0000
32.5400 666.1360 1.0000
32.5600 692.7495 1.0000
32.5800 660.9565 1.0000
32.6000 628.6573 1.0000
32.6200 695.5160 1.0000
32.6400 623.5937 1.0000
32.6600 667.8511 1.0000
32.6800 753.1914 1.0000
32.7000 640.3695 1.0000
32.7200 667.7278 1.0000
32.7400 705.8828 1.0000
32.7600 671.3789 1.0000
32.7800 660.2247 1.0000
32.8000 700.5394 1.0000
32.8200 713.6074 1.0000
32.8400 686.7128 1.0000
32.8600 658.5430 1.0000
32.8800 680.7103 1.0000
32.9000 718.7414 1.0000
32.9200 686.5798 1.0000
32.9400 655.6743 1.0000
32.9600 657.6231 1.0000
32.9800 664.2474 1.0000
33.0000 670.4353 1.0000
33.0200 654.5342 1.0000
33.0400 716.3909 1.0000
33.0600 700.0318 1.0000
33.0800 661.6701 1.0000
33.1000 647.2112 1.0000
33.1200 651.0229 1.0000
33.1400 653.3773 1.0000
33.1600 707.0919 1.0000
33.1800 662.4830 1.0000
33.2000 643.8381 1.0000
33.2200 636.3400 1.0000
33.2400 660.4158 1.0000
33.2600 731.9367 1.0000
33.2800 768.6117 1.0000
33.3000 667.1974 1.0000
33.3200 638.4168 1.0000
33.3400 723.4022 1.0000
33.3600 701.1814 1.0000
33.3800 666.3110 1.0000
33.4000 669.4190 1.0000
33.4200 629.4663 1.0000
33.4400 671.6696 1.0000
33.4600 644.6621 1.0000
33.4800 624.1029 1.0000
33.5000 641.7751 1.0000
33.5200 708.7491 1.0000
33.5400 656.6067 1.0000
33.5600 634.0663 1.0000
33.5800 626.7219 1.0000
33.6000 644.1172 1.0000
33.6200 657.4860 1.0000
33.6400 658.7122 1.0000
33.6600 644.5131 1.0000
33.6800 703.6014 1.0000
33.7000 668.3099 1.0000
33.7200 718.6623 1.0000
33.7400 701.1107 1.0000
33.7600 698.3599 1.0000
33.7800 666.3705 1.0000
33.8000 716.6217 1.0000
33.8200 694.2073 1.0000
33.8400 731.1271 1.0000
33.8600 730.9526 1.0000
33.8800 741.2673 1.0000
33.9000 741.3507 1.0000
33.9200 799.9075 1.0000
33.9400 791.7383 1.0000
33.9600 847.8808 1.0000
33.9800 898.9669 1.0000
34.0000 1039.1436 1.0000
34.0200 1243.3879 1.0000
34.0400 1269.1761 1.0000
34.0600 1374.5648 1.0000
34.0800 1572.3088 1.0000
34.1000 1747.1609 1.0000
34.1200 1845.7050 1.0000
34.1400 1307.8610 1.0000
34.1600 1109.0083 1.0000
34.1800 1167.0240 1.0000
34.2000 1227.1497 1.0000
34.2200 1013.2584 1.0000
34.2400 812.7747 1.0000
34.2600 719.1693 1.0000
34.2800 729.9348 1.0000
34.3000 694.1046 1.0000
34.3200 735.4966 1.0000
34.3400 770.5498 1.0000
34.3600 732.3441 1.0000
34.3800 675.5455 1.0000
34.4000 733.4223 1.0000
34.4200 711.9863 1.0000
34.4400 704.6205 1.0000
34.4600 676.3689 1.0000
34.4800 664.0081 1.0000
34.5000 691.5009 1.0000
34.5200 707.0264 1.0000
34.5400 654.5605 1.0000
34.5600 677.5899 1.0000
34.5800 753.6430 1.0000
34.6000 707.0201 1.0000
34.6200 642.3790 1.0000
34.6400 662.9376 1.0000
34.6600 638.9442 1.0000
34.6800 681.1459 1.0000
34.7000 634.1649 1.0000
34.7200 690.2396 1.0000
34.7400 705.1346 1.0000
34.7600 726.1371 1.0000
34.7800 682.4942 1.0000
34.8000 668.7174 1.0000
34.8200 687.4493 1.0000
34.8400 647.9550 1.0000
34.8600 732.3035 1.0000
34.8800 716.4774 1.0000
34.9000 720.5775 1.0000
34.9200 697.6952 1.0000
34.9400 622.7418 1.0000
34.9600 644.3558 1.0000
34.9800 711.8956 1.0000
35.0000 717.6857 1.0000
35.0200 657.7242 1.0000
35.0400 724.1870 1.0000
35.0600 684.2666 1.0000
35.0800 678.8648 1.0000
35.1000 700.2050 1.0000
35.1200 728.7482 1.0000
35.1400 684.1911 1.0000
35.1600 673.8693 1.0000
35.1800 611.0968 1.0000
35.2000 672.5460 1.0000
35.2200 653.2615 1.0000
35.2400 669.7497 1.0000
35.2600 684.8014 1.0000
35.2800 687.2095 1.0000
35.3000 680.9408 1.0000
35.3200 684.1122 1.0000
35.3400 676.2689 1.0000
35.3600 718.1746 1.0000
35.3800 654.0496 1.0000
35.4000 647.6846 1.0000
35.4200 622.3524 1.0000
35.4400 659.5211 1.0000
35.4600 634.1984 1.0000
35.4800 709.7457 1.0000
35.5000 717.8156 1.0000
35.5200 727.8652 1.0000
35.5400 687.4745 1.0000
35.5600 693.4026 1.0000
35.5800 700.6716 1.0000
35.6000 684.0250 1.0000
35.6200 696.1336 1.0000
35.6400 682.9030 1.0000
35.6600 605.8333 1.0000
35.6800 681.1772 1.0000
35.7000 660.7526 1.0000
35.7200 681.9713 1.0000
35.7400 675.3494 1.0000
35.7600 718.2133 1.0000
35.7800 639.5567 1.0000
35.8000 626.5439 1.0000
