*RAS_DATA_START
*RAS_HEADER_START
*ATMOSPHERE_TEMP_DATAOUT "0.0000000000"
*ATMOSPHERE_TEMP_END "30.0020000000"
*ATMOSPHERE_TEMP_START "29.9940000000"
*ATMOSPHERE_TEMP_UNIT "K"
*ATMOSPHERE_TEMP_UNIT_DISP "1.0000000000"
*DISP_FMT_X "%.3f"
*DISP_FMT_Y "%.0f"
*DISP_FULLSCALE "2237.7299095566"
*DISP_LINE_COLOR "255.0000000000"
*DISP_LINE_STYLE "0.0000000000"
*DISP_LINE_WIDTH "0.2500000000"
*DISP_NOTE "Collected Data-7"
*DISP_OFFSET_Y "0.0000000000"
*DISP_PEAKSEARCH_UNIT_Y "cps"
*DISP_RANGE_BOTTOM "0.0000000000"
*DISP_RANGE_LEFT "30.0000000000"
*DISP_RANGE_LOGCUTOFF "0.0100000000"
*DISP_RANGE_RIGHT "80.0000000000"
*DISP_RANGE_TOP "2237.7299095566"
*DISP_SCALE_MODE_Y "0.0000000000"
*DISP_TAB_NAME "Theta/2-Theta"
*DISP_TITLE_Y "Intensity"
*DISP_UNIT_Y "cps"
*DISP_WINDOW_NAME "MSG_MACROENGINE"
*FILE_COMMENT " "
*FILE_MD5 ""
*FILE_MEMO " "
*FILE_OPERATOR "administrator"
*FILE_PART_ID "MEAS_KHP2_00068"
*FILE_SAMPLE " "
*FILE_TYPE "RAS_RAW"
*FILE_USERGROUP "System Manager"
*FILE_VERSION "1.0000000000"
*HW_ATTACHMENT_ID "ATT0097"
*HW_ATTACHMENT_NAME "極低温アタッチメント(Z)-4K|Ultra-Low Temp. Att.(Z)-4K"
*HW_COUNTER_ID-0 "CUT0021"
*HW_COUNTER_ID-1 "CUT0051"
*HW_COUNTER_ID-2 "CUT0020"
*HW_COUNTER_ID-3 "CSL0021"
*HW_COUNTER_ID-4 "CMC0021"
*HW_COUNTER_NAME-0 "SC-70|SC-70"
*HW_COUNTER_NAME-1 "HyPix 3000(H)|HyPix 3000(H)"
*HW_COUNTER_NAME-2 "None|None"
*HW_COUNTER_NAME-3 "BBM|BBM"
*HW_COUNTER_NAME-4 "検出器モノクロメータ|Detector monochromator"
*HW_COUNTER_SELECT_NAME "HyPix 3000(H)|HyPix 3000(H)"
*HW_GONIOMETER_ID "GON0023"
*HW_GONIOMETER_NAME "SmartLab|SmartLab"
*HW_GONIOMETER_RADIUS-0 "90.0"
*HW_GONIOMETER_RADIUS-1 "114.0"
*HW_GONIOMETER_RADIUS-2 "190.0"
*HW_GONIOMETER_RADIUS-3 "300.0"
*HW_GONIOMETER_RADIUS-4 "187.0"
*HW_GONIOMETER_RADIUS-5 "300.0"
*HW_GONIOMETER_RADIUS-6 "113.0"
*HW_GONIOMETER_RADIUS-7 "331.0"
*HW_I_OPT_ID-0 "CBO0021"
*HW_I_OPT_ID-1 "ICR0023"
*HW_I_OPT_ID-2 "ISL0021"
*HW_I_OPT_ID-3 "ISO0021"
*HW_I_OPT_ID-4 "IAD0021"
*HW_I_OPT_ID-5 "IPR0001"
*HW_I_OPT_NAME-0 "CBOユニット|CBO unit"
*HW_I_OPT_NAME-1 "標準入射光学ユニット|Standard incident optical unit"
*HW_I_OPT_NAME-2 "標準入射スリットボックス|Standard incident slit box"
*HW_I_OPT_NAME-3 "入射平行スリット|Incident parallel slit"
*HW_I_OPT_NAME-4 "長手制限スリット|Length limiting slit"
*HW_I_OPT_NAME-5 "None|None"
*HW_R_ATTENUATER_AUTOMODE "0"
*HW_R_OPT_ID-0 "RSS0022"
*HW_R_OPT_ID-1 "RCR0022"
*HW_R_OPT_ID-2 "RSO0021"
*HW_R_OPT_ID-3 "RRS0022"
*HW_R_OPT_ID-4 "ATN0020"
*HW_R_OPT_ID-5 "RFL0021"
*HW_R_OPT_ID-6 "RAD0021"
*HW_R_OPT_NAME-0 "受光スリットボックス1(Zr軸付)|Receiving slit box # 1 (w/ Zr Axis)"
*HW_R_OPT_NAME-1 "標準受光光学ユニット1|Standard receiving unit # 1"
*HW_R_OPT_NAME-2 "標準受光光学ユニット2|Standard receiving optical unit # 2"
*HW_R_OPT_NAME-3 "仮想受光スリット2|Virtual receiving slit #2"
*HW_R_OPT_NAME-4 "無し|None"
*HW_R_OPT_NAME-5 "Cu Kβ|Cu K-beta"
*HW_R_OPT_NAME-6 "調整用受光スリット|Alignment receiving slit"
*HW_SAMPLE_HOLDER_ID "SMP0020"
*HW_SAMPLE_HOLDER_NAME "無し|None"
*HW_XG_CURRENT_MAX "50"
*HW_XG_CURRENT_MIN "2"
*HW_XG_CURRENT_RESOLUTION "1"
*HW_XG_CURRENT_UNIT "mA"
*HW_XG_FOCUS "0.4mm x 8mm"
*HW_XG_FOCUS_TYPE "Fine"
*HW_XG_ID "1200"
*HW_XG_NAME "3kW 封入管(ID:1200)|3kW Sealed tube(ID:1200)"
*HW_XG_TARGET_ATOMIC_NUMBER "29.0000000000"
*HW_XG_TARGET_NAME "Cu"
*HW_XG_TYPE "Hermetic"
*HW_XG_VOLTAGE_MAX "50"
*HW_XG_VOLTAGE_MIN "20"
*HW_XG_VOLTAGE_RESOLUTION "1"
*HW_XG_VOLTAGE_UNIT "kV"
*HW_XG_WATT_MAX "1.500"
*HW_XG_WATT_UNIT "kW"
*HW_XG_WAVE_LENGTH_ALPHA1 "1.540593"
*HW_XG_WAVE_LENGTH_ALPHA2 "1.544414"
*HW_XG_WAVE_LENGTH_BETA "1.392250"
*MEAS_COND_AXIS_NAME-0 "Theta/2-Theta"
*MEAS_COND_AXIS_NAME-1 "2-Theta"
*MEAS_COND_AXIS_NAME-2 "Omega"
*MEAS_COND_AXIS_NAME-3 "Z"
*MEAS_COND_AXIS_NAME-4 "2-Theta/Omega"
*MEAS_COND_AXIS_NAME-5 "Theta_s"
*MEAS_COND_AXIS_NAME-6 "Theta_d"
*MEAS_COND_AXIS_NAME-7 "Ts"
*MEAS_COND_AXIS_NAME-8 "CBO selection slit"
*MEAS_COND_AXIS_NAME-9 "M"
*MEAS_COND_AXIS_NAME-10 "Incident parallel slit"
*MEAS_COND_AXIS_NAME-11 "Incident slit"
*MEAS_COND_AXIS_NAME-12 ""
*MEAS_COND_AXIS_NAME-13 "Zs"
*MEAS_COND_AXIS_NAME-14 "Incident monochromator"
*MEAS_COND_AXIS_NAME-15 "Length limiting slit"
*MEAS_COND_AXIS_NAME-16 "Center slit"
*MEAS_COND_AXIS_NAME-17 "Filter"
*MEAS_COND_AXIS_NAME-18 "Receiving slit # 1"
*MEAS_COND_AXIS_NAME-19 "Receiving slit # 2"
*MEAS_COND_AXIS_NAME-20 "Receiving optical device"
*MEAS_COND_AXIS_NAME-21 "Receiving parallel slit"
*MEAS_COND_AXIS_NAME-22 "Alignment receiving slit"
*MEAS_COND_AXIS_NAME-23 ""
*MEAS_COND_AXIS_NAME-24 ""
*MEAS_COND_AXIS_NAME-25 "Zd"
*MEAS_COND_AXIS_NAME-26 "Attenuator"
*MEAS_COND_AXIS_NAME-27 "Diffracted beam monochromator"
*MEAS_COND_AXIS_NAME-28 "Monochromator slit"
*MEAS_COND_AXIS_NAME-29 "Zr"
*MEAS_COND_AXIS_NAME-30 "Primary beam"
*MEAS_COND_AXIS_NAME-31 "Temperature"
*MEAS_COND_AXIS_NAME-32 "Temperature2"
*MEAS_COND_AXIS_NAME_INTERNAL-0 "TwoThetaTheta"
*MEAS_COND_AXIS_NAME_INTERNAL-1 "TwoTheta"
*MEAS_COND_AXIS_NAME_INTERNAL-2 "Omega"
*MEAS_COND_AXIS_NAME_INTERNAL-3 "Z"
*MEAS_COND_AXIS_NAME_INTERNAL-4 "TwoThetaOmega"
*MEAS_COND_AXIS_NAME_INTERNAL-5 "ThetaS"
*MEAS_COND_AXIS_NAME_INTERNAL-6 "ThetaD"
*MEAS_COND_AXIS_NAME_INTERNAL-7 "Ts"
*MEAS_COND_AXIS_NAME_INTERNAL-8 "CBO"
*MEAS_COND_AXIS_NAME_INTERNAL-9 "CBO-M"
*MEAS_COND_AXIS_NAME_INTERNAL-10 "IncidentSollerSlit"
*MEAS_COND_AXIS_NAME_INTERNAL-11 "IncidentSlitBox"
*MEAS_COND_AXIS_NAME_INTERNAL-12 "IncidentSlitBox-_Axis"
*MEAS_COND_AXIS_NAME_INTERNAL-13 "Zs"
*MEAS_COND_AXIS_NAME_INTERNAL-14 "IncidentMonochromator"
*MEAS_COND_AXIS_NAME_INTERNAL-15 "IncidentAxdSlit"
*MEAS_COND_AXIS_NAME_INTERNAL-16 "CenterSlit"
*MEAS_COND_AXIS_NAME_INTERNAL-17 "Filter"
*MEAS_COND_AXIS_NAME_INTERNAL-18 "ReceivingSlitBox1"
*MEAS_COND_AXIS_NAME_INTERNAL-19 "ReceivingSlitBox2"
*MEAS_COND_AXIS_NAME_INTERNAL-20 "ReceivingOptics"
*MEAS_COND_AXIS_NAME_INTERNAL-21 "ReceivingSollerSlit"
*MEAS_COND_AXIS_NAME_INTERNAL-22 "ReceivingAxdSlit"
*MEAS_COND_AXIS_NAME_INTERNAL-23 "ReceivingSlitBox1-_Axis"
*MEAS_COND_AXIS_NAME_INTERNAL-24 "ReceivingSlitBox2-_Axis"
*MEAS_COND_AXIS_NAME_INTERNAL-25 "ReceivingSlitBox2-Zd"
*MEAS_COND_AXIS_NAME_INTERNAL-26 "Attenuator"
*MEAS_COND_AXIS_NAME_INTERNAL-27 "CounterMonochromator"
*MEAS_COND_AXIS_NAME_INTERNAL-28 "CounterSlit"
*MEAS_COND_AXIS_NAME_INTERNAL-29 "ReceivingSlitBox1-Zr"
*MEAS_COND_AXIS_NAME_INTERNAL-30 "IncidentPrimary"
*MEAS_COND_AXIS_NAME_INTERNAL-31 "Temperature"
*MEAS_COND_AXIS_NAME_INTERNAL-32 "Temperature2"
*MEAS_COND_AXIS_NAME_MAGICNO-0 "83951616.0000000000"
*MEAS_COND_AXIS_NAME_MAGICNO-1 "268632064.0000000000"
*MEAS_COND_AXIS_NAME_MAGICNO-2 "268500992.0000000000"
*MEAS_COND_AXIS_NAME_MAGICNO-3 "285278208.0000000000"
*MEAS_COND_AXIS_NAME_MAGICNO-4 "83951616.0000000000"
*MEAS_COND_AXIS_NAME_MAGICNO-5 "131072.0000000000"
*MEAS_COND_AXIS_NAME_MAGICNO-6 "131072.0000000000"
*MEAS_COND_AXIS_NAME_MAGICNO-7 "318898176.0000000000"
*MEAS_COND_AXIS_NAME_MAGICNO-8 "20971521.0000000000"
*MEAS_COND_AXIS_NAME_MAGICNO-9 "285343744.0000000000"
*MEAS_COND_AXIS_NAME_MAGICNO-10 "20971521.0000000000"
*MEAS_COND_AXIS_NAME_MAGICNO-11 "22020097.0000000000"
*MEAS_COND_AXIS_NAME_MAGICNO-12 "25165824.0000000000"
*MEAS_COND_AXIS_NAME_MAGICNO-13 "318898176.0000000000"
*MEAS_COND_AXIS_NAME_MAGICNO-14 "1.0000000000"
*MEAS_COND_AXIS_NAME_MAGICNO-15 "20971521.0000000000"
*MEAS_COND_AXIS_NAME_MAGICNO-16 "20971521.0000000000"
*MEAS_COND_AXIS_NAME_MAGICNO-17 "20971521.0000000000"
*MEAS_COND_AXIS_NAME_MAGICNO-18 "23068673.0000000000"
*MEAS_COND_AXIS_NAME_MAGICNO-19 "23068673.0000000000"
*MEAS_COND_AXIS_NAME_MAGICNO-20 "20971521.0000000000"
*MEAS_COND_AXIS_NAME_MAGICNO-21 "20971521.0000000000"
*MEAS_COND_AXIS_NAME_MAGICNO-22 "20971521.0000000000"
*MEAS_COND_AXIS_NAME_MAGICNO-23 "25165824.0000000000"
*MEAS_COND_AXIS_NAME_MAGICNO-24 "25165824.0000000000"
*MEAS_COND_AXIS_NAME_MAGICNO-25 "285343744.0000000000"
*MEAS_COND_AXIS_NAME_MAGICNO-26 "0.0000000000"
*MEAS_COND_AXIS_NAME_MAGICNO-27 "20971521.0000000000"
*MEAS_COND_AXIS_NAME_MAGICNO-28 "20971521.0000000000"
*MEAS_COND_AXIS_NAME_MAGICNO-29 "285343744.0000000000"
*MEAS_COND_AXIS_NAME_MAGICNO-30 "20971521.0000000000"
*MEAS_COND_AXIS_NAME_MAGICNO-31 "0.0000000000"
*MEAS_COND_AXIS_NAME_MAGICNO-32 "0.0000000000"
*MEAS_COND_AXIS_OFFSET-0 "-"
*MEAS_COND_AXIS_OFFSET-1 "0.1390000000"
*MEAS_COND_AXIS_OFFSET-2 "0.0531000000"
*MEAS_COND_AXIS_OFFSET-3 "-"
*MEAS_COND_AXIS_OFFSET-4 "-"
*MEAS_COND_AXIS_OFFSET-5 "0.0531000000"
*MEAS_COND_AXIS_OFFSET-6 "0.0859000000"
*MEAS_COND_AXIS_OFFSET-7 "-"
*MEAS_COND_AXIS_OFFSET-8 "-"
*MEAS_COND_AXIS_OFFSET-9 "-"
*MEAS_COND_AXIS_OFFSET-10 "-"
*MEAS_COND_AXIS_OFFSET-11 "-"
*MEAS_COND_AXIS_OFFSET-12 "-"
*MEAS_COND_AXIS_OFFSET-13 "-"
*MEAS_COND_AXIS_OFFSET-14 "-"
*MEAS_COND_AXIS_OFFSET-15 "-"
*MEAS_COND_AXIS_OFFSET-16 "-"
*MEAS_COND_AXIS_OFFSET-17 "-"
*MEAS_COND_AXIS_OFFSET-18 "-"
*MEAS_COND_AXIS_OFFSET-19 "-"
*MEAS_COND_AXIS_OFFSET-20 "-"
*MEAS_COND_AXIS_OFFSET-21 "-"
*MEAS_COND_AXIS_OFFSET-22 "-"
*MEAS_COND_AXIS_OFFSET-23 "-"
*MEAS_COND_AXIS_OFFSET-24 "-"
*MEAS_COND_AXIS_OFFSET-25 "-"
*MEAS_COND_AXIS_OFFSET-26 "-"
*MEAS_COND_AXIS_OFFSET-27 "-"
*MEAS_COND_AXIS_OFFSET-28 "-"
*MEAS_COND_AXIS_OFFSET-29 "-"
*MEAS_COND_AXIS_OFFSET-30 "-"
*MEAS_COND_AXIS_OFFSET-31 "0.0000000000"
*MEAS_COND_AXIS_OFFSET-32 "0.0000000000"
*MEAS_COND_AXIS_POSITION-0 "0.0000000000"
*MEAS_COND_AXIS_POSITION-1 "0.0000000000"
*MEAS_COND_AXIS_POSITION-2 "0.0000000000"
*MEAS_COND_AXIS_POSITION-3 "0.6184000000"
*MEAS_COND_AXIS_POSITION-4 "0.0000000000"
*MEAS_COND_AXIS_POSITION-5 "0.0000000000"
*MEAS_COND_AXIS_POSITION-6 "0.0000000000"
*MEAS_COND_AXIS_POSITION-7 "-0.5445000000"
*MEAS_COND_AXIS_POSITION-8 "BB"
*MEAS_COND_AXIS_POSITION-9 "0.0000000000"
*MEAS_COND_AXIS_POSITION-10 "Soller_slit_5.0deg"
*MEAS_COND_AXIS_POSITION-11 "1/2deg"
*MEAS_COND_AXIS_POSITION-12 "1.6581000000"
*MEAS_COND_AXIS_POSITION-13 "-0.2778100000"
*MEAS_COND_AXIS_POSITION-14 "0.0000000000"
*MEAS_COND_AXIS_POSITION-15 "15.0mm"
*MEAS_COND_AXIS_POSITION-16 "None"
*MEAS_COND_AXIS_POSITION-17 "Cu_K-beta"
*MEAS_COND_AXIS_POSITION-18 "1/2deg"
*MEAS_COND_AXIS_POSITION-19 "0.300mm"
*MEAS_COND_AXIS_POSITION-20 "PSA_open"
*MEAS_COND_AXIS_POSITION-21 "Soller_slit_5.0deg"
*MEAS_COND_AXIS_POSITION-22 "None"
*MEAS_COND_AXIS_POSITION-23 "0.9862000000"
*MEAS_COND_AXIS_POSITION-24 "0.3000000000"
*MEAS_COND_AXIS_POSITION-25 "0.0000000000"
*MEAS_COND_AXIS_POSITION-26 "-"
*MEAS_COND_AXIS_POSITION-27 "No_unit"
*MEAS_COND_AXIS_POSITION-28 "None"
*MEAS_COND_AXIS_POSITION-29 "0.0650000000"
*MEAS_COND_AXIS_POSITION-30 "None"
*MEAS_COND_AXIS_POSITION-31 "29.9940000000"
*MEAS_COND_AXIS_POSITION-32 "29.9670000000"
*MEAS_COND_AXIS_UNIT-0 "deg"
*MEAS_COND_AXIS_UNIT-1 "deg"
*MEAS_COND_AXIS_UNIT-2 "deg"
*MEAS_COND_AXIS_UNIT-3 "mm"
*MEAS_COND_AXIS_UNIT-4 "deg"
*MEAS_COND_AXIS_UNIT-5 "deg"
*MEAS_COND_AXIS_UNIT-6 "deg"
*MEAS_COND_AXIS_UNIT-7 "mm"
*MEAS_COND_AXIS_UNIT-8 ""
*MEAS_COND_AXIS_UNIT-9 "pulse"
*MEAS_COND_AXIS_UNIT-10 ""
*MEAS_COND_AXIS_UNIT-11 ""
*MEAS_COND_AXIS_UNIT-12 "mm"
*MEAS_COND_AXIS_UNIT-13 "mm"
*MEAS_COND_AXIS_UNIT-14 ""
*MEAS_COND_AXIS_UNIT-15 ""
*MEAS_COND_AXIS_UNIT-16 ""
*MEAS_COND_AXIS_UNIT-17 ""
*MEAS_COND_AXIS_UNIT-18 ""
*MEAS_COND_AXIS_UNIT-19 ""
*MEAS_COND_AXIS_UNIT-20 ""
*MEAS_COND_AXIS_UNIT-21 ""
*MEAS_COND_AXIS_UNIT-22 ""
*MEAS_COND_AXIS_UNIT-23 "mm"
*MEAS_COND_AXIS_UNIT-24 "mm"
*MEAS_COND_AXIS_UNIT-25 "mm"
*MEAS_COND_AXIS_UNIT-26 ""
*MEAS_COND_AXIS_UNIT-27 ""
*MEAS_COND_AXIS_UNIT-28 ""
*MEAS_COND_AXIS_UNIT-29 "mm"
*MEAS_COND_AXIS_UNIT-30 ""
*MEAS_COND_AXIS_UNIT-31 "K"
*MEAS_COND_AXIS_UNIT-32 "K"
*MEAS_COND_COUNTER_CNTLOSS_CORR "0.0000000000"
*MEAS_COND_COUNTER_TAUDIFF "0.0000000000"
*MEAS_COND_COUNTER_TAUINT "0.0000000000"
*MEAS_COND_COUNTER_TEMP_CONDITION "NORMAL"
*MEAS_COND_IRRADIATION_MODE "OFF"
*MEAS_COND_IRRADIATION_WIDTH ""
*MEAS_COND_OPT_ATTR "Bragg-Brentano focusing"
*MEAS_COND_OPT_NAME "@BB focusing"
*MEAS_COND_UNSYMMETRIC_MODE "OFF"
*MEAS_COND_XG_CURRENT "30.0000000000"
*MEAS_COND_XG_VOLTAGE "40.0000000000"
*MEAS_COND_XG_WAVE_TYPE "Ka"
*MEAS_DATA_COUNT "2501.0000000000"
*MEAS_SCAN_AXIS_X "Theta/2-Theta"
*MEAS_SCAN_AXIS_X_INTERNAL "TwoThetaTheta"
*MEAS_SCAN_END_TIME "02/18/20 01:29:23"
*MEAS_SCAN_MODE "CONTINUOUS"
*MEAS_SCAN_MONITOR "0"
*MEAS_SCAN_RESOLUTION_X "0.0002"
*MEAS_SCAN_SPEED "0.301163"
*MEAS_SCAN_SPEED_UNIT "deg/min"
*MEAS_SCAN_SPEED_USER "0.3"
*MEAS_SCAN_START "30.0000000000"
*MEAS_SCAN_START_TIME "02/17/20 22:42:10"
*MEAS_SCAN_STEP "0.0200000000"
*MEAS_SCAN_STOP "80.0000000000"
*MEAS_SCAN_UNIT_X "deg"
*MEAS_SCAN_UNIT_Y "counts"
*RAS_HEADER_END
*RAS_INT_START
30.0000 675.9016 1.0000
30.0200 692.8283 1.0000
30.0400 727.7501 1.0000
30.0600 637.6227 1.0000
30.0800 631.5666 1.0000
30.1000 657.5583 1.0000
30.1200 650.5711 1.0000
30.1400 702.9731 1.0000
30.1600 698.0564 1.0000
30.1800 721.6541 1.0000
30.2000 660.3009 1.0000
30.2200 683.5251 1.0000
30.2400 703.8204 1.0000
30.2600 638.5579 1.0000
30.2800 698.1371 1.0000
30.3000 682.7106 1.0000
30.3200 694.6653 1.0000
30.3400 682.2926 1.0000
30.3600 651.1484 1.0000
30.3800 650.5732 1.0000
30.4000 681.6810 1.0000
30.4200 694.0880 1.0000
30.4400 708.4737 1.0000
30.4600 646.1544 1.0000
30.4800 623.0911 1.0000
30.5000 664.2075 1.0000
30.5200 699.0129 1.0000
30.5400 699.5012 1.0000
30.5600 686.8174 1.0000
30.5800 645.5089 1.0000
30.6000 631.3633 1.0000
30.6200 635.6553 1.0000
30.6400 669.3124 1.0000
30.6600 681.8171 1.0000
30.6800 648.8105 1.0000
30.7000 650.7183 1.0000
30.7200 652.2966 1.0000
30.7400 684.3345 1.0000
30.7600 684.6425 1.0000
30.7800 650.2538 1.0000
30.8000 687.4702 1.0000
30.8200 670.4376 1.0000
30.8400 678.2195 1.0000
30.8600 680.0215 1.0000
30.8800 680.2403 1.0000
30.9000 671.9238 1.0000
30.9200 717.4561 1.0000
30.9400 686.9166 1.0000
30.9600 675.1249 1.0000
30.9800 656.5219 1.0000
31.0000 634.2254 1.0000
31.0200 631.3080 1.0000
31.0400 671.4607 1.0000
31.0600 642.3244 1.0000
31.0800 680.6253 1.0000
31.1000 691.1596 1.0000
31.1200 693.7203 1.0000
31.1400 704.0688 1.0000
31.1600 670.4727 1.0000
31.1800 697.3785 1.0000
31.2000 678.0142 1.0000
31.2200 676.8617 1.0000
31.2400 668.0663 1.0000
31.2600 625.9154 1.0000
31.2800 661.8999 1.0000
31.3000 679.0321 1.0000
31.3200 649.4178 1.0000
31.3400 666.5151 1.0000
31.3600 650.4555 1.0000
31.3800 645.9681 1.0000
31.4000 671.0530 1.0000
31.4200 646.2726 1.0000
31.4400 658.4017 1.0000
31.4600 654.6999 1.0000
31.4800 665.3066 1.0000
31.5000 687.8174 1.0000
31.5200 650.6504 1.0000
31.5400 666.8042 1.0000
31.5600 661.3898 1.0000
31.5800 656.8259 1.0000
31.6000 680.6390 1.0000
31.6200 668.6625 1.0000
31.6400 665.5084 1.0000
31.6600 632.6815 1.0000
31.6800 692.4158 1.0000
31.7000 642.2845 1.0000
31.7200 639.0651 1.0000
31.7400 671.5498 1.0000
31.7600 719.9388 1.0000
31.7800 624.7711 1.0000
31.8000 671.7014 1.0000
31.8200 667.5518 1.0000
31.8400 694.7662 1.0000
31.8600 704.8729 1.0000
31.8800 632.1249 1.0000
31.9000 699.2238 1.0000
31.9200 616.1630 1.0000
31.9400 710.7229 1.0000
31.9600 702.1174 1.0000
31.9800 641.1583 1.0000
32.0000 656.1752 1.0000
32.0200 714.3827 1.0000
32.0400 623.5409 1.0000
32.0600 694.2549 1.0000
32.0800 640.5724 1.0000
32.1000 672.0814 1.0000
32.1200 645.6508 1.0000
32.1400 644.8132 1.0000
32.1600 636.8087 1.0000
32.1800 672.9875 1.0000
32.2000 646.5706 1.0000
32.2200 668.9916 1.0000
32.2400 664.4869 1.0000
32.2600 699.9000 1.0000
32.2800 662.5200 1.0000
32.3000 655.6136 1.0000
32.3200 673.1014 1.0000
32.3400 686.4892 1.0000
32.3600 631.7291 1.0000
32.3800 642.6184 1.0000
32.4000 654.0829 1.0000
32.4200 666.0328 1.0000
32.4400 684.1233 1.0000
32.4600 653.8037 1.0000
32.4800 627.3175 1.0000
32.5000 632.1780 1.0000
32.5200 708.4031 1.0000
32.5400 654.4215 1.0000
32.5600 662.2446 1.0000
32.5800 676.2791 1.0000
32.6000 610.8152 1.0000
32.6200 611.1183 1.0000
32.6400 613.3522 1.0000
32.6600 646.7183 1.0000
32.6800 688.5117 1.0000
32.7000 687.4294 1.0000
32.7200 654.2256 1.0000
32.7400 689.1832 1.0000
32.7600 693.9134 1.0000
32.7800 688.3870 1.0000
32.8000 706.5465 1.0000
32.8200 637.3887 1.0000
32.8400 661.1466 1.0000
32.8600 649.0076 1.0000
32.8800 654.3871 1.0000
32.9000 679.1995 1.0000
32.9200 672.1063 1.0000
32.9400 696.7227 1.0000
32.9600 691.7306 1.0000
32.9800 673.6460 1.0000
33.0000 648.9174 1.0000
33.0200 628.5540 1.0000
33.0400 626.7073 1.0000
33.0600 678.5837 1.0000
33.0800 706.0547 1.0000
33.1000 715.7474 1.0000
33.1200 637.4070 1.0000
33.1400 685.1120 1.0000
33.1600 679.9261 1.0000
33.1800 667.3141 1.0000
33.2000 655.1210 1.0000
33.2200 671.8330 1.0000
33.2400 628.2753 1.0000
33.2600 650.6025 1.0000
33.2800 637.7174 1.0000
33.3000 660.9798 1.0000
33.3200 657.0870 1.0000
33.3400 696.6077 1.0000
33.3600 681.3362 1.0000
33.3800 687.2543 1.0000
33.4000 679.5507 1.0000
33.4200 712.0920 1.0000
33.4400 674.1707 1.0000
33.4600 663.5677 1.0000
33.4800 655.6815 1.0000
33.5000 639.2945 1.0000
33.5200 678.0460 1.0000
33.5400 700.6353 1.0000
33.5600 682.0393 1.0000
33.5800 666.7013 1.0000
33.6000 713.7126 1.0000
33.6200 695.6683 1.0000
33.6400 621.5697 1.0000
33.6600 679.7305 1.0000
33.6800 708.9172 1.0000
33.7000 720.9771 1.0000
33.7200 676.2218 1.0000
33.7400 672.3573 1.0000
33.7600 707.5815 1.0000
33.7800 691.3287 1.0000
33.8000 735.4348 1.0000
33.8200 685.5355 1.0000
33.8400 705.5417 1.0000
33.8600 716.0035 1.0000
33.8800 674.6243 1.0000
33.9000 709.8557 1.0000
33.9200 717.4150 1.0000
33.9400 822.9705 1.0000
33.9600 796.0685 1.0000
33.9800 925.8696 1.0000
34.0000 1081.5739 1.0000
34.0200 1275.2191 1.0000
34.0400 1214.5577 1.0000
34.0600 1418.8867 1.0000
34.0800 1508.1158 1.0000
34.1000 1810.6697 1.0000
34.1200 1767.3068 1.0000
34.1400 1311.3121 1.0000
34.1600 1161.2850 1.0000
34.1800 1117.9357 1.0000
34.2000 1217.4845 1.0000
34.2200 983.9079 1.0000
34.2400 814.9434 1.0000
34.2600 780.8633 1.0000
34.2800 739.6212 1.0000
34.3000 748.0672 1.0000
34.3200 712.8360 1.0000
34.3400 716.4464 1.0000
34.3600 674.9419 1.0000
34.3800 708.1633 1.0000
34.4000 686.2635 1.0000
34.4200 630.4589 1.0000
34.4400 673.7211 1.0000
34.4600 672.5916 1.0000
34.4800 663.3266 1.0000
34.5000 668.0402 1.0000
34.5200 631.0819 1.0000
34.5400 716.9981 1.0000
34.5600 705.1818 1.0000
34.5800 667.6062 1.0000
34.6000 628.2490 1.0000
34.6200 676.7156 1.0000
34.6400 678.1291 1.0000
34.6600 649.6710 1.0000
34.6800 627.6415 1.0000
34.7000 690.7776 1.0000
34.7200 639.4730 1.0000
34.7400 703.1573 1.0000
34.7600 691.8127 1.0000
34.7800 652.7673 1.0000
34.8000 676.3802 1.0000
34.8200 670.2286 1.0000
34.8400 677.2673 1.0000
34.8600 692.0035 1.0000
34.8800 662.8300 1.0000
34.9000 675.3440 1.0000
34.9200 689.7696 1.0000
34.9400 647.8143 1.0000
34.9600 682.0688 1.0000
34.9800 644.4108 1.0000
35.0000 661.1310 1.0000
35.0200 639.8112 1.0000
35.0400 688.4341 1.0000
35.0600 681.2520 1.0000
35.0800 696.6334 1.0000
35.1000 690.4800 1.0000
35.1200 659.5502 1.0000
35.1400 657.7856 1.0000
35.1600 651.1492 1.0000
35.1800 663.0884 1.0000
35.2000 676.7795 1.0000
35.2200 663.7939 1.0000
35.2400 665.5928 1.0000
35.2600 645.2136 1.0000
35.2800 687.3248 1.0000
35.3000 722.7707 1.0000
35.3200 696.7526 1.0000
35.3400 678.1446 1.0000
35.3600 656.7939 1.0000
35.3800 662.5302 1.0000
35.4000 683.0183 1.0000
35.4200 675.7385 1.0000
35.4400 652.1503 1.0000
35.4600 649.2617 1.0000
35.4800 682.5911 1.0000
35.5000 695.3757 1.0000
35.5200 698.1646 1.0000
35.5400 697.0880 1.0000
35.5600 695.0706 1.0000
35.5800 713.7994 1.0000
35.6000 660.7075 1.0000
35.6200 670.7803 1.0000
35.6400 697.9036 1.0000
35.6600 668.2532 1.0000
35.6800 685.7831 1.0000
35.7000 703.0436 1.0000
35.7200 652.7963 1.0000
35.7400 637.4063 1.0000
35.7600 733.6091 1.0000
35.7800 621.1638 1.0000
35.8000 625.7907 1.0000
