*RAS_DATA_START
*RAS_HEADER_START
*ATMOSPHERE_TEMP_DATAOUT "0.0000000000"
*ATMOSPHERE_TEMP_END "40.0010000000"
*ATMOSPHERE_TEMP_START "40.0000000000"
*ATMOSPHERE_TEMP_UNIT "K"
*ATMOSPHERE_TEMP_UNIT_DISP "1.0000000000"
*DISP_FMT_X "%.3f"
*DISP_FMT_Y "%.0f"
*DISP_FULLSCALE "2274.1790145347"
*DISP_LINE_COLOR "255.0000000000"
*DISP_LINE_STYLE "0.0000000000"
*DISP_LINE_WIDTH "0.2500000000"
*DISP_NOTE "Collected Data-9"
*DISP_OFFSET_Y "0.0000000000"
*DISP_PEAKSEARCH_UNIT_Y "cps"
*DISP_RANGE_BOTTOM "0.0000000000"
*DISP_RANGE_LEFT "30.0000000000"
*DISP_RANGE_LOGCUTOFF "0.0100000000"
*DISP_RANGE_RIGHT "80.0000000000"
*DISP_RANGE_TOP "2274.1790145347"
*DISP_SCALE_MODE_Y "0.0000000000"
*DISP_TAB_NAME "Theta/2-Theta"
*DISP_TITLE_Y "Intensity"
*DISP_UNIT_Y "cps"
*DISP_WINDOW_NAME "MSG_MACROENGINE"
*FILE_COMMENT " "
*FILE_MD5 ""
*FILE_MEMO " "
*FILE_OPERATOR "administrator"
*FILE_PART_ID "MEAS_KHP2_00068"
*FILE_SAMPLE " "
*FILE_TYPE "RAS_RAW"
*FILE_USERGROUP "System Manager"
*FILE_VERSION "1.0000000000"
*HW_ATTACHMENT_ID "ATT0097"
*HW_ATTACHMENT_NAME "極低温アタッチメント(Z)-4K|Ultra-Low Temp. Att.(Z)-4K"
*HW_COUNTER_ID-0 "CUT0021"
*HW_COUNTER_ID-1 "CUT0051"
*HW_COUNTER_ID-2 "CUT0020"
*HW_COUNTER_ID-3 "CSL0021"
*HW_COUNTER_ID-4 "CMC0021"
*HW_COUNTER_NAME-0 "SC-70|SC-70"
*HW_COUNTER_NAME-1 "HyPix 3000(H)|HyPix 3000(H)"
*HW_COUNTER_NAME-2 "None|None"
*HW_COUNTER_NAME-3 "BBM|BBM"
*HW_COUNTER_NAME-4 "検出器モノクロメータ|Detector monochromator"
*HW_COUNTER_SELECT_NAME "HyPix 3000(H)|HyPix 3000(H)"
*HW_GONIOMETER_ID "GON0023"
*HW_GONIOMETER_NAME "SmartLab|SmartLab"
*HW_GONIOMETER_RADIUS-0 "90.0"
*HW_GONIOMETER_RADIUS-1 "114.0"
*HW_GONIOMETER_RADIUS-2 "190.0"
*HW_GONIOMETER_RADIUS-3 "300.0"
*HW_GONIOMETER_RADIUS-4 "187.0"
*HW_GONIOMETER_RADIUS-5 "300.0"
*HW_GONIOMETER_RADIUS-6 "113.0"
*HW_GONIOMETER_RADIUS-7 "331.0"
*HW_I_OPT_ID-0 "CBO0021"
*HW_I_OPT_ID-1 "ICR0023"
*HW_I_OPT_ID-2 "ISL0021"
*HW_I_OPT_ID-3 "ISO0021"
*HW_I_OPT_ID-4 "IAD0021"
*HW_I_OPT_ID-5 "IPR0001"
*HW_I_OPT_NAME-0 "CBOユニット|CBO unit"
*HW_I_OPT_NAME-1 "標準入射光学ユニット|Standard incident optical unit"
*HW_I_OPT_NAME-2 "標準入射スリットボックス|Standard incident slit box"
*HW_I_OPT_NAME-3 "入射平行スリット|Incident parallel slit"
*HW_I_OPT_NAME-4 "長手制限スリット|Length limiting slit"
*HW_I_OPT_NAME-5 "None|None"
*HW_R_ATTENUATER_AUTOMODE "0"
*HW_R_OPT_ID-0 "RSS0022"
*HW_R_OPT_ID-1 "RCR0022"
*HW_R_OPT_ID-2 "RSO0021"
*HW_R_OPT_ID-3 "RRS0022"
*HW_R_OPT_ID-4 "ATN0020"
*HW_R_OPT_ID-5 "RFL0021"
*HW_R_OPT_ID-6 "RAD0021"
*HW_R_OPT_NAME-0 "受光スリットボックス1(Zr軸付)|Receiving slit box # 1 (w/ Zr Axis)"
*HW_R_OPT_NAME-1 "標準受光光学ユニット1|Standard receiving unit # 1"
*HW_R_OPT_NAME-2 "標準受光光学ユニット2|Standard receiving optical unit # 2"
*HW_R_OPT_NAME-3 "仮想受光スリット2|Virtual receiving slit #2"
*HW_R_OPT_NAME-4 "無し|None"
*HW_R_OPT_NAME-5 "Cu Kβ|Cu K-beta"
*HW_R_OPT_NAME-6 "調整用受光スリット|Alignment receiving slit"
*HW_SAMPLE_HOLDER_ID "SMP0020"
*HW_SAMPLE_HOLDER_NAME "無し|None"
*HW_XG_CURRENT_MAX "50"
*HW_XG_CURRENT_MIN "2"
*HW_XG_CURRENT_RESOLUTION "1"
*HW_XG_CURRENT_UNIT "mA"
*HW_XG_FOCUS "0.4mm x 8mm"
*HW_XG_FOCUS_TYPE "Fine"
*HW_XG_ID "1200"
*HW_XG_NAME "3kW 封入管(ID:1200)|3kW Sealed tube(ID:1200)"
*HW_XG_TARGET_ATOMIC_NUMBER "29.0000000000"
*HW_XG_TARGET_NAME "Cu"
*HW_XG_TYPE "Hermetic"
*HW_XG_VOLTAGE_MAX "50"
*HW_XG_VOLTAGE_MIN "20"
*HW_XG_VOLTAGE_RESOLUTION "1"
*HW_XG_VOLTAGE_UNIT "kV"
*HW_XG_WATT_MAX "1.500"
*HW_XG_WATT_UNIT "kW"
*HW_XG_WAVE_LENGTH_ALPHA1 "1.540593"
*HW_XG_WAVE_LENGTH_ALPHA2 "1.544414"
*HW_XG_WAVE_LENGTH_BETA "1.392250"
*MEAS_COND_AXIS_NAME-0 "Theta/2-Theta"
*MEAS_COND_AXIS_NAME-1 "2-Theta"
*MEAS_COND_AXIS_NAME-2 "Omega"
*MEAS_COND_AXIS_NAME-3 "Z"
*MEAS_COND_AXIS_NAME-4 "2-Theta/Omega"
*MEAS_COND_AXIS_NAME-5 "Theta_s"
*MEAS_COND_AXIS_NAME-6 "Theta_d"
*MEAS_COND_AXIS_NAME-7 "Ts"
*MEAS_COND_AXIS_NAME-8 "CBO selection slit"
*MEAS_COND_AXIS_NAME-9 "M"
*MEAS_COND_AXIS_NAME-10 "Incident parallel slit"
*MEAS_COND_AXIS_NAME-11 "Incident slit"
*MEAS_COND_AXIS_NAME-12 ""
*MEAS_COND_AXIS_NAME-13 "Zs"
*MEAS_COND_AXIS_NAME-14 "Incident monochromator"
*MEAS_COND_AXIS_NAME-15 "Length limiting slit"
*MEAS_COND_AXIS_NAME-16 "Center slit"
*MEAS_COND_AXIS_NAME-17 "Filter"
*MEAS_COND_AXIS_NAME-18 "Receiving slit # 1"
*MEAS_COND_AXIS_NAME-19 "Receiving slit # 2"
*MEAS_COND_AXIS_NAME-20 "Receiving optical device"
*MEAS_COND_AXIS_NAME-21 "Receiving parallel slit"
*MEAS_COND_AXIS_NAME-22 "Alignment receiving slit"
*MEAS_COND_AXIS_NAME-23 ""
*MEAS_COND_AXIS_NAME-24 ""
*MEAS_COND_AXIS_NAME-25 "Zd"
*MEAS_COND_AXIS_NAME-26 "Attenuator"
*MEAS_COND_AXIS_NAME-27 "Diffracted beam monochromator"
*MEAS_COND_AXIS_NAME-28 "Monochromator slit"
*MEAS_COND_AXIS_NAME-29 "Zr"
*MEAS_COND_AXIS_NAME-30 "Primary beam"
*MEAS_COND_AXIS_NAME-31 "Temperature"
*MEAS_COND_AXIS_NAME-32 "Temperature2"
*MEAS_COND_AXIS_NAME_INTERNAL-0 "TwoThetaTheta"
*MEAS_COND_AXIS_NAME_INTERNAL-1 "TwoTheta"
*MEAS_COND_AXIS_NAME_INTERNAL-2 "Omega"
*MEAS_COND_AXIS_NAME_INTERNAL-3 "Z"
*MEAS_COND_AXIS_NAME_INTERNAL-4 "TwoThetaOmega"
*MEAS_COND_AXIS_NAME_INTERNAL-5 "ThetaS"
*MEAS_COND_AXIS_NAME_INTERNAL-6 "ThetaD"
*MEAS_COND_AXIS_NAME_INTERNAL-7 "Ts"
*MEAS_COND_AXIS_NAME_INTERNAL-8 "CBO"
*MEAS_COND_AXIS_NAME_INTERNAL-9 "CBO-M"
*MEAS_COND_AXIS_NAME_INTERNAL-10 "IncidentSollerSlit"
*MEAS_COND_AXIS_NAME_INTERNAL-11 "IncidentSlitBox"
*MEAS_COND_AXIS_NAME_INTERNAL-12 "IncidentSlitBox-_Axis"
*MEAS_COND_AXIS_NAME_INTERNAL-13 "Zs"
*MEAS_COND_AXIS_NAME_INTERNAL-14 "IncidentMonochromator"
*MEAS_COND_AXIS_NAME_INTERNAL-15 "IncidentAxdSlit"
*MEAS_COND_AXIS_NAME_INTERNAL-16 "CenterSlit"
*MEAS_COND_AXIS_NAME_INTERNAL-17 "Filter"
*MEAS_COND_AXIS_NAME_INTERNAL-18 "ReceivingSlitBox1"
*MEAS_COND_AXIS_NAME_INTERNAL-19 "ReceivingSlitBox2"
*MEAS_COND_AXIS_NAME_INTERNAL-20 "ReceivingOptics"
*MEAS_COND_AXIS_NAME_INTERNAL-21 "ReceivingSollerSlit"
*MEAS_COND_AXIS_NAME_INTERNAL-22 "ReceivingAxdSlit"
*MEAS_COND_AXIS_NAME_INTERNAL-23 "ReceivingSlitBox1-_Axis"
*MEAS_COND_AXIS_NAME_INTERNAL-24 "ReceivingSlitBox2-_Axis"
*MEAS_COND_AXIS_NAME_INTERNAL-25 "ReceivingSlitBox2-Zd"
*MEAS_COND_AXIS_NAME_INTERNAL-26 "Attenuator"
*MEAS_COND_AXIS_NAME_INTERNAL-27 "CounterMonochromator"
*MEAS_COND_AXIS_NAME_INTERNAL-28 "CounterSlit"
*MEAS_COND_AXIS_NAME_INTERNAL-29 "ReceivingSlitBox1-Zr"
*MEAS_COND_AXIS_NAME_INTERNAL-30 "IncidentPrimary"
*MEAS_COND_AXIS_NAME_INTERNAL-31 "Temperature"
*MEAS_COND_AXIS_NAME_INTERNAL-32 "Temperature2"
*MEAS_COND_AXIS_NAME_MAGICNO-0 "83951616.0000000000"
*MEAS_COND_AXIS_NAME_MAGICNO-1 "268632064.0000000000"
*MEAS_COND_AXIS_NAME_MAGICNO-2 "268500992.0000000000"
*MEAS_COND_AXIS_NAME_MAGICNO-3 "285278208.0000000000"
*MEAS_COND_AXIS_NAME_MAGICNO-4 "83951616.0000000000"
*MEAS_COND_AXIS_NAME_MAGICNO-5 "131072.0000000000"
*MEAS_COND_AXIS_NAME_MAGICNO-6 "131072.0000000000"
*MEAS_COND_AXIS_NAME_MAGICNO-7 "318898176.0000000000"
*MEAS_COND_AXIS_NAME_MAGICNO-8 "20971521.0000000000"
*MEAS_COND_AXIS_NAME_MAGICNO-9 "285343744.0000000000"
*MEAS_COND_AXIS_NAME_MAGICNO-10 "20971521.0000000000"
*MEAS_COND_AXIS_NAME_MAGICNO-11 "22020097.0000000000"
*MEAS_COND_AXIS_NAME_MAGICNO-12 "25165824.0000000000"
*MEAS_COND_AXIS_NAME_MAGICNO-13 "318898176.0000000000"
*MEAS_COND_AXIS_NAME_MAGICNO-14 "1.0000000000"
*MEAS_COND_AXIS_NAME_MAGICNO-15 "20971521.0000000000"
*MEAS_COND_AXIS_NAME_MAGICNO-16 "20971521.0000000000"
*MEAS_COND_AXIS_NAME_MAGICNO-17 "20971521.0000000000"
*MEAS_COND_AXIS_NAME_MAGICNO-18 "23068673.0000000000"
*MEAS_COND_AXIS_NAME_MAGICNO-19 "23068673.0000000000"
*MEAS_COND_AXIS_NAME_MAGICNO-20 "20971521.0000000000"
*MEAS_COND_AXIS_NAME_MAGICNO-21 "20971521.0000000000"
*MEAS_COND_AXIS_NAME_MAGICNO-22 "20971521.0000000000"
*MEAS_COND_AXIS_NAME_MAGICNO-23 "25165824.0000000000"
*MEAS_COND_AXIS_NAME_MAGICNO-24 "25165824.0000000000"
*MEAS_COND_AXIS_NAME_MAGICNO-25 "285343744.0000000000"
*MEAS_COND_AXIS_NAME_MAGICNO-26 "0.0000000000"
*MEAS_COND_AXIS_NAME_MAGICNO-27 "20971521.0000000000"
*MEAS_COND_AXIS_NAME_MAGICNO-28 "20971521.0000000000"
*MEAS_COND_AXIS_NAME_MAGICNO-29 "285343744.0000000000"
*MEAS_COND_AXIS_NAME_MAGICNO-30 "20971521.0000000000"
*MEAS_COND_AXIS_NAME_MAGICNO-31 "0.0000000000"
*MEAS_COND_AXIS_NAME_MAGICNO-32 "0.0000000000"
*MEAS_COND_AXIS_OFFSET-0 "-"
*MEAS_COND_AXIS_OFFSET-1 "0.1390000000"
*MEAS_COND_AXIS_OFFSET-2 "0.0531000000"
*MEAS_COND_AXIS_OFFSET-3 "-"
*MEAS_COND_AXIS_OFFSET-4 "-"
*MEAS_COND_AXIS_OFFSET-5 "0.0531000000"
*MEAS_COND_AXIS_OFFSET-6 "0.0859000000"
*MEAS_COND_AXIS_OFFSET-7 "-"
*MEAS_COND_AXIS_OFFSET-8 "-"
*MEAS_COND_AXIS_OFFSET-9 "-"
*MEAS_COND_AXIS_OFFSET-10 "-"
*MEAS_COND_AXIS_OFFSET-11 "-"
*MEAS_COND_AXIS_OFFSET-12 "-"
*MEAS_COND_AXIS_OFFSET-13 "-"
*MEAS_COND_AXIS_OFFSET-14 "-"
*MEAS_COND_AXIS_OFFSET-15 "-"
*MEAS_COND_AXIS_OFFSET-16 "-"
*MEAS_COND_AXIS_OFFSET-17 "-"
*MEAS_COND_AXIS_OFFSET-18 "-"
*MEAS_COND_AXIS_OFFSET-19 "-"
*MEAS_COND_AXIS_OFFSET-20 "-"
*MEAS_COND_AXIS_OFFSET-21 "-"
*MEAS_COND_AXIS_OFFSET-22 "-"
*MEAS_COND_AXIS_OFFSET-23 "-"
*MEAS_COND_AXIS_OFFSET-24 "-"
*MEAS_COND_AXIS_OFFSET-25 "-"
*MEAS_COND_AXIS_OFFSET-26 "-"
*MEAS_COND_AXIS_OFFSET-27 "-"
*MEAS_COND_AXIS_OFFSET-28 "-"
*MEAS_COND_AXIS_OFFSET-29 "-"
*MEAS_COND_AXIS_OFFSET-30 "-"
*MEAS_COND_AXIS_OFFSET-31 "0.0000000000"
*MEAS_COND_AXIS_OFFSET-32 "0.0000000000"
*MEAS_COND_AXIS_POSITION-0 "0.0000000000"
*MEAS_COND_AXIS_POSITION-1 "0.0000000000"
*MEAS_COND_AXIS_POSITION-2 "0.0000000000"
*MEAS_COND_AXIS_POSITION-3 "0.6220000000"
*MEAS_COND_AXIS_POSITION-4 "0.0000000000"
*MEAS_COND_AXIS_POSITION-5 "0.0000000000"
*MEAS_COND_AXIS_POSITION-6 "0.0000000000"
*MEAS_COND_AXIS_POSITION-7 "-0.5445000000"
*MEAS_COND_AXIS_POSITION-8 "BB"
*MEAS_COND_AXIS_POSITION-9 "0.0000000000"
*MEAS_COND_AXIS_POSITION-10 "Soller_slit_5.0deg"
*MEAS_COND_AXIS_POSITION-11 "1/2deg"
*MEAS_COND_AXIS_POSITION-12 "1.6581000000"
*MEAS_COND_AXIS_POSITION-13 "-0.2778100000"
*MEAS_COND_AXIS_POSITION-14 "0.0000000000"
*MEAS_COND_AXIS_POSITION-15 "15.0mm"
*MEAS_COND_AXIS_POSITION-16 "None"
*MEAS_COND_AXIS_POSITION-17 "Cu_K-beta"
*MEAS_COND_AXIS_POSITION-18 "1/2deg"
*MEAS_COND_AXIS_POSITION-19 "0.300mm"
*MEAS_COND_AXIS_POSITION-20 "PSA_open"
*MEAS_COND_AXIS_POSITION-21 "Soller_slit_5.0deg"
*MEAS_COND_AXIS_POSITION-22 "None"
*MEAS_COND_AXIS_POSITION-23 "0.9862000000"
*MEAS_COND_AXIS_POSITION-24 "0.3000000000"
*MEAS_COND_AXIS_POSITION-25 "0.0000000000"
*MEAS_COND_AXIS_POSITION-26 "-"
*MEAS_COND_AXIS_POSITION-27 "No_unit"
*MEAS_COND_AXIS_POSITION-28 "None"
*MEAS_COND_AXIS_POSITION-29 "0.0650000000"
*MEAS_COND_AXIS_POSITION-30 "None"
*MEAS_COND_AXIS_POSITION-31 "40.0000000000"
*MEAS_COND_AXIS_POSITION-32 "39.9500000000"
*MEAS_COND_AXIS_UNIT-0 "deg"
*MEAS_COND_AXIS_UNIT-1 "deg"
*MEAS_COND_AXIS_UNIT-2 "deg"
*MEAS_COND_AXIS_UNIT-3 "mm"
*MEAS_COND_AXIS_UNIT-4 "deg"
*MEAS_COND_AXIS_UNIT-5 "deg"
*MEAS_COND_AXIS_UNIT-6 "deg"
*MEAS_COND_AXIS_UNIT-7 "mm"
*MEAS_COND_AXIS_UNIT-8 ""
*MEAS_COND_AXIS_UNIT-9 "pulse"
*MEAS_COND_AXIS_UNIT-10 ""
*MEAS_COND_AXIS_UNIT-11 ""
*MEAS_COND_AXIS_UNIT-12 "mm"
*MEAS_COND_AXIS_UNIT-13 "mm"
*MEAS_COND_AXIS_UNIT-14 ""
*MEAS_COND_AXIS_UNIT-15 ""
*MEAS_COND_AXIS_UNIT-16 ""
*MEAS_COND_AXIS_UNIT-17 ""
*MEAS_COND_AXIS_UNIT-18 ""
*MEAS_COND_AXIS_UNIT-19 ""
*MEAS_COND_AXIS_UNIT-20 ""
*MEAS_COND_AXIS_UNIT-21 ""
*MEAS_COND_AXIS_UNIT-22 ""
*MEAS_COND_AXIS_UNIT-23 "mm"
*MEAS_COND_AXIS_UNIT-24 "mm"
*MEAS_COND_AXIS_UNIT-25 "mm"
*MEAS_COND_AXIS_UNIT-26 ""
*MEAS_COND_AXIS_UNIT-27 ""
*MEAS_COND_AXIS_UNIT-28 ""
*MEAS_COND_AXIS_UNIT-29 "mm"
*MEAS_COND_AXIS_UNIT-30 ""
*MEAS_COND_AXIS_UNIT-31 "K"
*MEAS_COND_AXIS_UNIT-32 "K"
*MEAS_COND_COUNTER_CNTLOSS_CORR "0.0000000000"
*MEAS_COND_COUNTER_TAUDIFF "0.0000000000"
*MEAS_COND_COUNTER_TAUINT "0.0000000000"
*MEAS_COND_COUNTER_TEMP_CONDITION "NORMAL"
*MEAS_COND_IRRADIATION_MODE "OFF"
*MEAS_COND_IRRADIATION_WIDTH ""
*MEAS_COND_OPT_ATTR "Bragg-Brentano focusing"
*MEAS_COND_OPT_NAME "@BB focusing"
*MEAS_COND_UNSYMMETRIC_MODE "OFF"
*MEAS_COND_XG_CURRENT "30.0000000000"
*MEAS_COND_XG_VOLTAGE "40.0000000000"
*MEAS_COND_XG_WAVE_TYPE "Ka"
*MEAS_DATA_COUNT "2501.0000000000"
*MEAS_SCAN_AXIS_X "Theta/2-Theta"
*MEAS_SCAN_AXIS_X_INTERNAL "TwoThetaTheta"
*MEAS_SCAN_END_TIME "02/18/20 05:01:52"
*MEAS_SCAN_MODE "CONTINUOUS"
*MEAS_SCAN_MONITOR "0"
*MEAS_SCAN_RESOLUTION_X "0.0002"
*MEAS_SCAN_SPEED "0.301163"
*MEAS_SCAN_SPEED_UNIT "deg/min"
*MEAS_SCAN_SPEED_USER "0.3"
*MEAS_SCAN_START "30.0000000000"
*MEAS_SCAN_START_TIME "02/18/20 02:14:40"
*MEAS_SCAN_STEP "0.0200000000"
*MEAS_SCAN_STOP "80.0000000000"
*MEAS_SCAN_UNIT_X "deg"
*MEAS_SCAN_UNIT_Y "counts"
*RAS_HEADER_END
*RAS_INT_START
30.0000 695.9901 1.0000
30.0200 687.7648 1.0000
30.0400 683.3854 1.0000
30.0600 700.4036 1.0000
30.0800 701.9620 1.0000
30.1000 658.3143 1.0000
30.1200 690.6306 1.0000
30.1400 744.7026 1.0000
30.1600 687.0143 1.0000
30.1800 679.5199 1.0000
30.2000 622.4927 1.0000
30.2200 734.0941 1.0000
30.2400 699.1409 1.0000
30.2600 685.6122 1.0000
30.2800 677.0590 1.0000
30.3000 633.2849 1.0000
30.3200 673.7082 1.0000
30.3400 678.4248 1.0000
30.3600 646.0473 1.0000
30.3800 673.6897 1.0000
30.4000 712.3676 1.0000
30.4200 663.6063 1.0000
30.4400 727.4036 1.0000
30.4600 632.1635 1.0000
30.4800 671.8489 1.0000
30.5000 646.4938 1.0000
30.5200 650.7386 1.0000
30.5400 684.5428 1.0000
30.5600 696.7947 1.0000
30.5800 737.2269 1.0000
30.6000 675.6227 1.0000
30.6200 684.9156 1.0000
30.6400 686.8475 1.0000
30.6600 648.8057 1.0000
30.6800 667.0786 1.0000
30.7000 701.3856 1.0000
30.7200 707.6573 1.0000
30.7400 712.6121 1.0000
30.7600 665.8875 1.0000
30.7800 660.5156 1.0000
30.8000 684.5143 1.0000
30.8200 678.1610 1.0000
30.8400 717.8027 1.0000
30.8600 656.5660 1.0000
30.8800 676.3936 1.0000
30.9000 656.0355 1.0000
30.9200 670.0786 1.0000
30.9400 660.6672 1.0000
30.9600 634.7509 1.0000
30.9800 676.8786 1.0000
31.0000 695.8015 1.0000
31.0200 681.9758 1.0000
31.0400 670.2894 1.0000
31.0600 699.5364 1.0000
31.0800 644.3843 1.0000
31.1000 699.4998 1.0000
31.1200 652.5055 1.0000
31.1400 645.6415 1.0000
31.1600 651.2891 1.0000
31.1800 630.6503 1.0000
31.2000 665.7386 1.0000
31.2200 647.2258 1.0000
31.2400 675.9112 1.0000
31.2600 695.3137 1.0000
31.2800 657.1520 1.0000
31.3000 680.3242 1.0000
31.3200 661.9269 1.0000
31.3400 677.7786 1.0000
31.3600 630.9268 1.0000
31.3800 658.6932 1.0000
31.4000 684.6965 1.0000
31.4200 661.0611 1.0000
31.4400 676.7252 1.0000
31.4600 649.4597 1.0000
31.4800 668.4958 1.0000
31.5000 679.6517 1.0000
31.5200 620.6911 1.0000
31.5400 671.8990 1.0000
31.5600 696.7289 1.0000
31.5800 704.1931 1.0000
31.6000 677.8399 1.0000
31.6200 671.4041 1.0000
31.6400 697.3990 1.0000
31.6600 668.3687 1.0000
31.6800 638.8951 1.0000
31.7000 715.4730 1.0000
31.7200 673.4389 1.0000
31.7400 638.4374 1.0000
31.7600 689.3770 1.0000
31.7800 675.1058 1.0000
31.8000 675.3875 1.0000
31.8200 679.4158 1.0000
31.8400 708.4653 1.0000
31.8600 641.7383 1.0000
31.8800 687.4912 1.0000
31.9000 654.5680 1.0000
31.9200 681.1046 1.0000
31.9400 683.3430 1.0000
31.9600 666.6947 1.0000
31.9800 633.5825 1.0000
32.0000 658.2942 1.0000
32.0200 675.2593 1.0000
32.0400 668.2837 1.0000
32.0600 648.2516 1.0000
32.0800 690.2308 1.0000
32.1000 709.0341 1.0000
32.1200 683.2867 1.0000
32.1400 681.4528 1.0000
32.1600 648.3239 1.0000
32.1800 681.7917 1.0000
32.2000 662.0560 1.0000
32.2200 674.5934 1.0000
32.2400 658.5041 1.0000
32.2600 623.0184 1.0000
32.2800 651.9781 1.0000
32.3000 634.5572 1.0000
32.3200 657.9272 1.0000
32.3400 663.0749 1.0000
32.3600 701.4153 1.0000
32.3800 642.1726 1.0000
32.4000 699.7753 1.0000
32.4200 655.4761 1.0000
32.4400 659.8460 1.0000
32.4600 669.4329 1.0000
32.4800 665.4797 1.0000
32.5000 686.5511 1.0000
32.5200 656.8991 1.0000
32.5400 692.0319 1.0000
32.5600 703.8520 1.0000
32.5800 651.8318 1.0000
32.6000 658.7294 1.0000
32.6200 680.0313 1.0000
32.6400 673.5833 1.0000
32.6600 687.7109 1.0000
32.6800 688.5529 1.0000
32.7000 644.4081 1.0000
32.7200 672.4943 1.0000
32.7400 669.6226 1.0000
32.7600 684.4820 1.0000
32.7800 672.2736 1.0000
32.8000 670.0271 1.0000
32.8200 628.9112 1.0000
32.8400 675.2167 1.0000
32.8600 710.9662 1.0000
32.8800 704.4181 1.0000
32.9000 681.1841 1.0000
32.9200 660.8553 1.0000
32.9400 669.2891 1.0000
32.9600 693.5604 1.0000
32.9800 710.3954 1.0000
33.0000 697.5219 1.0000
33.0200 694.1045 1.0000
33.0400 696.7061 1.0000
33.0600 701.8506 1.0000
33.0800 666.2961 1.0000
33.1000 624.8785 1.0000
33.1200 674.4658 1.0000
33.1400 649.1299 1.0000
33.1600 660.3278 1.0000
33.1800 652.4654 1.0000
33.2000 676.8697 1.0000
33.2200 716.4376 1.0000
33.2400 674.4860 1.0000
33.2600 670.6967 1.0000
33.2800 665.9700 1.0000
33.3000 659.5161 1.0000
33.3200 699.6190 1.0000
33.3400 663.7443 1.0000
33.3600 670.6387 1.0000
33.3800 677.5880 1.0000
33.4000 636.1149 1.0000
33.4200 686.8433 1.0000
33.4400 656.0989 1.0000
33.4600 660.3873 1.0000
33.4800 722.4045 1.0000
33.5000 683.5621 1.0000
33.5200 692.0231 1.0000
33.5400 669.2297 1.0000
33.5600 675.5858 1.0000
33.5800 656.2557 1.0000
33.6000 706.0360 1.0000
33.6200 665.1443 1.0000
33.6400 677.6641 1.0000
33.6600 639.0529 1.0000
33.6800 684.5905 1.0000
33.7000 672.1910 1.0000
33.7200 660.2268 1.0000
33.7400 632.3452 1.0000
33.7600 694.0818 1.0000
33.7800 661.5928 1.0000
33.8000 683.3545 1.0000
33.8200 690.7050 1.0000
33.8400 723.5140 1.0000
33.8600 726.9839 1.0000
33.8800 715.9452 1.0000
33.9000 744.7191 1.0000
33.9200 774.6807 1.0000
33.9400 817.4876 1.0000
33.9600 820.0158 1.0000
33.9800 928.4048 1.0000
34.0000 1056.1353 1.0000
34.0200 1204.0754 1.0000
34.0400 1257.1000 1.0000
34.0600 1465.2881 1.0000
34.0800 1523.3766 1.0000
34.1000 1798.3728 1.0000
34.1200 1831.1691 1.0000
34.1400 1309.2734 1.0000
34.1600 1215.1093 1.0000
34.1800 1144.6343 1.0000
34.2000 1195.6771 1.0000
34.2200 972.9449 1.0000
34.2400 786.7209 1.0000
34.2600 725.4233 1.0000
34.2800 755.9174 1.0000
34.3000 706.5951 1.0000
34.3200 681.1447 1.0000
34.3400 673.5013 1.0000
34.3600 730.0514 1.0000
34.3800 701.3672 1.0000
34.4000 683.5673 1.0000
34.4200 716.3805 1.0000
34.4400 716.2355 1.0000
34.4600 657.5994 1.0000
34.4800 695.0688 1.0000
34.5000 711.3505 1.0000
34.5200 664.6014 1.0000
34.5400 654.2279 1.0000
34.5600 672.0118 1.0000
34.5800 695.4449 1.0000
34.6000 672.1927 1.0000
34.6200 716.3920 1.0000
34.6400 639.1437 1.0000
34.6600 635.4747 1.0000
34.6800 667.4372 1.0000
34.7000 679.6132 1.0000
34.7200 653.9980 1.0000
34.7400 630.0112 1.0000
34.7600 629.6580 1.0000
34.7800 723.0970 1.0000
34.8000 698.4658 1.0000
34.8200 672.3873 1.0000
34.8400 667.2391 1.0000
34.8600 637.9279 1.0000
34.8800 727.5449 1.0000
34.9000 629.9948 1.0000
34.9200 682.8179 1.0000
34.9400 666.1592 1.0000
34.9600 723.2917 1.0000
34.9800 667.4813 1.0000
35.0000 672.1299 1.0000
35.0200 679.4036 1.0000
35.0400 685.8936 1.0000
35.0600 657.8700 1.0000
35.0800 708.4683 1.0000
35.1000 674.8958 1.0000
35.1200 633.7046 1.0000
35.1400 706.1100 1.0000
35.1600 704.6750 1.0000
35.1800 676.3621 1.0000
35.2000 717.1172 1.0000
35.2200 650.2862 1.0000
35.2400 633.7092 1.0000
35.2600 686.2908 1.0000
35.2800 668.2411 1.0000
35.3000 657.4520 1.0000
35.3200 666.8506 1.0000
35.3400 643.7653 1.0000
35.3600 617.7274 1.0000
35.3800 671.9023 1.0000
35.4000 652.1686 1.0000
35.4200 631.1364 1.0000
35.4400 662.5829 1.0000
35.4600 640.1346 1.0000
35.4800 662.1902 1.0000
35.5000 669.6419 1.0000
35.5200 695.9706 1.0000
35.5400 707.0034 1.0000
35.5600 708.8122 1.0000
35.5800 756.2949 1.0000
35.6000 687.6205 1.0000
35.6200 635.4144 1.0000
35.6400 670.3334 1.0000
35.6600 697.5564 1.0000
35.6800 692.4789 1.0000
35.7000 692.3368 1.0000
35.7200 660.6535 1.0000
35.7400 664.1002 1.0000
35.7600 664.3705 1.0000
35.7800 674.3289 1.0000
35.8000 680.9872 1.0000
