*RAS_DATA_START
*RAS_HEADER_START
*ATMOSPHERE_TEMP_DATAOUT "0.0000000000"
*ATMOSPHERE_TEMP_END "49.9980000000"
*ATMOSPHERE_TEMP_START "50.0010000000"
*ATMOSPHERE_TEMP_UNIT "K"
*ATMOSPHERE_TEMP_UNIT_DISP "1.0000000000"
*DISP_FMT_X "%.3f"
*DISP_FMT_Y "%.0f"
*DISP_FULLSCALE "2227.3771373271"
*DISP_LINE_COLOR "255.0000000000"
*DISP_LINE_STYLE "0.0000000000"
*DISP_LINE_WIDTH "0.2500000000"
*DISP_NOTE "Collected Data-11"
*DISP_OFFSET_Y "0.0000000000"
*DISP_PEAKSEARCH_UNIT_Y "cps"
*DISP_RANGE_BOTTOM "0.0000000000"
*DISP_RANGE_LEFT "30.0000000000"
*DISP_RANGE_LOGCUTOFF "0.0100000000"
*DISP_RANGE_RIGHT "80.0000000000"
*DISP_RANGE_TOP "2227.3771373271"
*DISP_SCALE_MODE_Y "0.0000000000"
*DISP_TAB_NAME "Theta/2-Theta"
*DISP_TITLE_Y "Intensity"
*DISP_UNIT_Y "cps"
*DISP_WINDOW_NAME "MSG_MACROENGINE"
*FILE_COMMENT " "
*FILE_MD5 ""
*FILE_MEMO " "
*FILE_OPERATOR "administrator"
*FILE_PART_ID "MEAS_KHP2_00068"
*FILE_SAMPLE " "
*FILE_TYPE "RAS_RAW"
*FILE_USERGROUP "System Manager"
*FILE_VERSION "1.0000000000"
*HW_ATTACHMENT_ID "ATT0097"
*HW_ATTACHMENT_NAME "極低温アタッチメント(Z)-4K|Ultra-Low Temp. Att.(Z)-4K"
*HW_COUNTER_ID-0 "CUT0021"
*HW_COUNTER_ID-1 "CUT0051"
*HW_COUNTER_ID-2 "CUT0020"
*HW_COUNTER_ID-3 "CSL0021"
*HW_COUNTER_ID-4 "CMC0021"
*HW_COUNTER_NAME-0 "SC-70|SC-70"
*HW_COUNTER_NAME-1 "HyPix 3000(H)|HyPix 3000(H)"
*HW_COUNTER_NAME-2 "None|None"
*HW_COUNTER_NAME-3 "BBM|BBM"
*HW_COUNTER_NAME-4 "検出器モノクロメータ|Detector monochromator"
*HW_COUNTER_SELECT_NAME "HyPix 3000(H)|HyPix 3000(H)"
*HW_GONIOMETER_ID "GON0023"
*HW_GONIOMETER_NAME "SmartLab|SmartLab"
*HW_GONIOMETER_RADIUS-0 "90.0"
*HW_GONIOMETER_RADIUS-1 "114.0"
*HW_GONIOMETER_RADIUS-2 "190.0"
*HW_GONIOMETER_RADIUS-3 "300.0"
*HW_GONIOMETER_RADIUS-4 "187.0"
*HW_GONIOMETER_RADIUS-5 "300.0"
*HW_GONIOMETER_RADIUS-6 "113.0"
*HW_GONIOMETER_RADIUS-7 "331.0"
*HW_I_OPT_ID-0 "CBO0021"
*HW_I_OPT_ID-1 "ICR0023"
*HW_I_OPT_ID-2 "ISL0021"
*HW_I_OPT_ID-3 "ISO0021"
*HW_I_OPT_ID-4 "IAD0021"
*HW_I_OPT_ID-5 "IPR0001"
*HW_I_OPT_NAME-0 "CBOユニット|CBO unit"
*HW_I_OPT_NAME-1 "標準入射光学ユニット|Standard incident optical unit"
*HW_I_OPT_NAME-2 "標準入射スリットボックス|Standard incident slit box"
*HW_I_OPT_NAME-3 "入射平行スリット|Incident parallel slit"
*HW_I_OPT_NAME-4 "長手制限スリット|Length limiting slit"
*HW_I_OPT_NAME-5 "None|None"
*HW_R_ATTENUATER_AUTOMODE "0"
*HW_R_OPT_ID-0 "RSS0022"
*HW_R_OPT_ID-1 "RCR0022"
*HW_R_OPT_ID-2 "RSO0021"
*HW_R_OPT_ID-3 "RRS0022"
*HW_R_OPT_ID-4 "ATN0020"
*HW_R_OPT_ID-5 "RFL0021"
*HW_R_OPT_ID-6 "RAD0021"
*HW_R_OPT_NAME-0 "受光スリットボックス1(Zr軸付)|Receiving slit box # 1 (w/ Zr Axis)"
*HW_R_OPT_NAME-1 "標準受光光学ユニット1|Standard receiving unit # 1"
*HW_R_OPT_NAME-2 "標準受光光学ユニット2|Standard receiving optical unit # 2"
*HW_R_OPT_NAME-3 "仮想受光スリット2|Virtual receiving slit #2"
*HW_R_OPT_NAME-4 "無し|None"
*HW_R_OPT_NAME-5 "Cu Kβ|Cu K-beta"
*HW_R_OPT_NAME-6 "調整用受光スリット|Alignment receiving slit"
*HW_SAMPLE_HOLDER_ID "SMP0020"
*HW_SAMPLE_HOLDER_NAME "無し|None"
*HW_XG_CURRENT_MAX "50"
*HW_XG_CURRENT_MIN "2"
*HW_XG_CURRENT_RESOLUTION "1"
*HW_XG_CURRENT_UNIT "mA"
*HW_XG_FOCUS "0.4mm x 8mm"
*HW_XG_FOCUS_TYPE "Fine"
*HW_XG_ID "1200"
*HW_XG_NAME "3kW 封入管(ID:1200)|3kW Sealed tube(ID:1200)"
*HW_XG_TARGET_ATOMIC_NUMBER "29.0000000000"
*HW_XG_TARGET_NAME "Cu"
*HW_XG_TYPE "Hermetic"
*HW_XG_VOLTAGE_MAX "50"
*HW_XG_VOLTAGE_MIN "20"
*HW_XG_VOLTAGE_RESOLUTION "1"
*HW_XG_VOLTAGE_UNIT "kV"
*HW_XG_WATT_MAX "1.500"
*HW_XG_WATT_UNIT "kW"
*HW_XG_WAVE_LENGTH_ALPHA1 "1.540593"
*HW_XG_WAVE_LENGTH_ALPHA2 "1.544414"
*HW_XG_WAVE_LENGTH_BETA "1.392250"
*MEAS_COND_AXIS_NAME-0 "Theta/2-Theta"
*MEAS_COND_AXIS_NAME-1 "2-Theta"
*MEAS_COND_AXIS_NAME-2 "Omega"
*MEAS_COND_AXIS_NAME-3 "Z"
*MEAS_COND_AXIS_NAME-4 "2-Theta/Omega"
*MEAS_COND_AXIS_NAME-5 "Theta_s"
*MEAS_COND_AXIS_NAME-6 "Theta_d"
*MEAS_COND_AXIS_NAME-7 "Ts"
*MEAS_COND_AXIS_NAME-8 "CBO selection slit"
*MEAS_COND_AXIS_NAME-9 "M"
*MEAS_COND_AXIS_NAME-10 "Incident parallel slit"
*MEAS_COND_AXIS_NAME-11 "Incident slit"
*MEAS_COND_AXIS_NAME-12 ""
*MEAS_COND_AXIS_NAME-13 "Zs"
*MEAS_COND_AXIS_NAME-14 "Incident monochromator"
*MEAS_COND_AXIS_NAME-15 "Length limiting slit"
*MEAS_COND_AXIS_NAME-16 "Center slit"
*MEAS_COND_AXIS_NAME-17 "Filter"
*MEAS_COND_AXIS_NAME-18 "Receiving slit # 1"
*MEAS_COND_AXIS_NAME-19 "Receiving slit # 2"
*MEAS_COND_AXIS_NAME-20 "Receiving optical device"
*MEAS_COND_AXIS_NAME-21 "Receiving parallel slit"
*MEAS_COND_AXIS_NAME-22 "Alignment receiving slit"
*MEAS_COND_AXIS_NAME-23 ""
*MEAS_COND_AXIS_NAME-24 ""
*MEAS_COND_AXIS_NAME-25 "Zd"
*MEAS_COND_AXIS_NAME-26 "Attenuator"
*MEAS_COND_AXIS_NAME-27 "Diffracted beam monochromator"
*MEAS_COND_AXIS_NAME-28 "Monochromator slit"
*MEAS_COND_AXIS_NAME-29 "Zr"
*MEAS_COND_AXIS_NAME-30 "Primary beam"
*MEAS_COND_AXIS_NAME-31 "Temperature"
*MEAS_COND_AXIS_NAME-32 "Temperature2"
*MEAS_COND_AXIS_NAME_INTERNAL-0 "TwoThetaTheta"
*MEAS_COND_AXIS_NAME_INTERNAL-1 "TwoTheta"
*MEAS_COND_AXIS_NAME_INTERNAL-2 "Omega"
*MEAS_COND_AXIS_NAME_INTERNAL-3 "Z"
*MEAS_COND_AXIS_NAME_INTERNAL-4 "TwoThetaOmega"
*MEAS_COND_AXIS_NAME_INTERNAL-5 "ThetaS"
*MEAS_COND_AXIS_NAME_INTERNAL-6 "ThetaD"
*MEAS_COND_AXIS_NAME_INTERNAL-7 "Ts"
*MEAS_COND_AXIS_NAME_INTERNAL-8 "CBO"
*MEAS_COND_AXIS_NAME_INTERNAL-9 "CBO-M"
*MEAS_COND_AXIS_NAME_INTERNAL-10 "IncidentSollerSlit"
*MEAS_COND_AXIS_NAME_INTERNAL-11 "IncidentSlitBox"
*MEAS_COND_AXIS_NAME_INTERNAL-12 "IncidentSlitBox-_Axis"
*MEAS_COND_AXIS_NAME_INTERNAL-13 "Zs"
*MEAS_COND_AXIS_NAME_INTERNAL-14 "IncidentMonochromator"
*MEAS_COND_AXIS_NAME_INTERNAL-15 "IncidentAxdSlit"
*MEAS_COND_AXIS_NAME_INTERNAL-16 "CenterSlit"
*MEAS_COND_AXIS_NAME_INTERNAL-17 "Filter"
*MEAS_COND_AXIS_NAME_INTERNAL-18 "ReceivingSlitBox1"
*MEAS_COND_AXIS_NAME_INTERNAL-19 "ReceivingSlitBox2"
*MEAS_COND_AXIS_NAME_INTERNAL-20 "ReceivingOptics"
*MEAS_COND_AXIS_NAME_INTERNAL-21 "ReceivingSollerSlit"
*MEAS_COND_AXIS_NAME_INTERNAL-22 "ReceivingAxdSlit"
*MEAS_COND_AXIS_NAME_INTERNAL-23 "ReceivingSlitBox1-_Axis"
*MEAS_COND_AXIS_NAME_INTERNAL-24 "ReceivingSlitBox2-_Axis"
*MEAS_COND_AXIS_NAME_INTERNAL-25 "ReceivingSlitBox2-Zd"
*MEAS_COND_AXIS_NAME_INTERNAL-26 "Attenuator"
*MEAS_COND_AXIS_NAME_INTERNAL-27 "CounterMonochromator"
*MEAS_COND_AXIS_NAME_INTERNAL-28 "CounterSlit"
*MEAS_COND_AXIS_NAME_INTERNAL-29 "ReceivingSlitBox1-Zr"
*MEAS_COND_AXIS_NAME_INTERNAL-30 "IncidentPrimary"
*MEAS_COND_AXIS_NAME_INTERNAL-31 "Temperature"
*MEAS_COND_AXIS_NAME_INTERNAL-32 "Temperature2"
*MEAS_COND_AXIS_NAME_MAGICNO-0 "83951616.0000000000"
*MEAS_COND_AXIS_NAME_MAGICNO-1 "268632064.0000000000"
*MEAS_COND_AXIS_NAME_MAGICNO-2 "268500992.0000000000"
*MEAS_COND_AXIS_NAME_MAGICNO-3 "285278208.0000000000"
*MEAS_COND_AXIS_NAME_MAGICNO-4 "83951616.0000000000"
*MEAS_COND_AXIS_NAME_MAGICNO-5 "131072.0000000000"
*MEAS_COND_AXIS_NAME_MAGICNO-6 "131072.0000000000"
*MEAS_COND_AXIS_NAME_MAGICNO-7 "318898176.0000000000"
*MEAS_COND_AXIS_NAME_MAGICNO-8 "20971521.0000000000"
*MEAS_COND_AXIS_NAME_MAGICNO-9 "285343744.0000000000"
*MEAS_COND_AXIS_NAME_MAGICNO-10 "20971521.0000000000"
*MEAS_COND_AXIS_NAME_MAGICNO-11 "22020097.0000000000"
*MEAS_COND_AXIS_NAME_MAGICNO-12 "25165824.0000000000"
*MEAS_COND_AXIS_NAME_MAGICNO-13 "318898176.0000000000"
*MEAS_COND_AXIS_NAME_MAGICNO-14 "1.0000000000"
*MEAS_COND_AXIS_NAME_MAGICNO-15 "20971521.0000000000"
*MEAS_COND_AXIS_NAME_MAGICNO-16 "20971521.0000000000"
*MEAS_COND_AXIS_NAME_MAGICNO-17 "20971521.0000000000"
*MEAS_COND_AXIS_NAME_MAGICNO-18 "23068673.0000000000"
*MEAS_COND_AXIS_NAME_MAGICNO-19 "23068673.0000000000"
*MEAS_COND_AXIS_NAME_MAGICNO-20 "20971521.0000000000"
*MEAS_COND_AXIS_NAME_MAGICNO-21 "20971521.0000000000"
*MEAS_COND_AXIS_NAME_MAGICNO-22 "20971521.0000000000"
*MEAS_COND_AXIS_NAME_MAGICNO-23 "25165824.0000000000"
*MEAS_COND_AXIS_NAME_MAGICNO-24 "25165824.0000000000"
*MEAS_COND_AXIS_NAME_MAGICNO-25 "285343744.0000000000"
*MEAS_COND_AXIS_NAME_MAGICNO-26 "0.0000000000"
*MEAS_COND_AXIS_NAME_MAGICNO-27 "20971521.0000000000"
*MEAS_COND_AXIS_NAME_MAGICNO-28 "20971521.0000000000"
*MEAS_COND_AXIS_NAME_MAGICNO-29 "285343744.0000000000"
*MEAS_COND_AXIS_NAME_MAGICNO-30 "20971521.0000000000"
*MEAS_COND_AXIS_NAME_MAGICNO-31 "0.0000000000"
*MEAS_COND_AXIS_NAME_MAGICNO-32 "0.0000000000"
*MEAS_COND_AXIS_OFFSET-0 "-"
*MEAS_COND_AXIS_OFFSET-1 "0.1390000000"
*MEAS_COND_AXIS_OFFSET-2 "0.0531000000"
*MEAS_COND_AXIS_OFFSET-3 "-"
*MEAS_COND_AXIS_OFFSET-4 "-"
*MEAS_COND_AXIS_OFFSET-5 "0.0531000000"
*MEAS_COND_AXIS_OFFSET-6 "0.0859000000"
*MEAS_COND_AXIS_OFFSET-7 "-"
*MEAS_COND_AXIS_OFFSET-8 "-"
*MEAS_COND_AXIS_OFFSET-9 "-"
*MEAS_COND_AXIS_OFFSET-10 "-"
*MEAS_COND_AXIS_OFFSET-11 "-"
*MEAS_COND_AXIS_OFFSET-12 "-"
*MEAS_COND_AXIS_OFFSET-13 "-"
*MEAS_COND_AXIS_OFFSET-14 "-"
*MEAS_COND_AXIS_OFFSET-15 "-"
*MEAS_COND_AXIS_OFFSET-16 "-"
*MEAS_COND_AXIS_OFFSET-17 "-"
*MEAS_COND_AXIS_OFFSET-18 "-"
*MEAS_COND_AXIS_OFFSET-19 "-"
*MEAS_COND_AXIS_OFFSET-20 "-"
*MEAS_COND_AXIS_OFFSET-21 "-"
*MEAS_COND_AXIS_OFFSET-22 "-"
*MEAS_COND_AXIS_OFFSET-23 "-"
*MEAS_COND_AXIS_OFFSET-24 "-"
*MEAS_COND_AXIS_OFFSET-25 "-"
*MEAS_COND_AXIS_OFFSET-26 "-"
*MEAS_COND_AXIS_OFFSET-27 "-"
*MEAS_COND_AXIS_OFFSET-28 "-"
*MEAS_COND_AXIS_OFFSET-29 "-"
*MEAS_COND_AXIS_OFFSET-30 "-"
*MEAS_COND_AXIS_OFFSET-31 "0.0000000000"
*MEAS_COND_AXIS_OFFSET-32 "0.0000000000"
*MEAS_COND_AXIS_POSITION-0 "0.0000000000"
*MEAS_COND_AXIS_POSITION-1 "0.0000000000"
*MEAS_COND_AXIS_POSITION-2 "0.0000000000"
*MEAS_COND_AXIS_POSITION-3 "0.6204000000"
*MEAS_COND_AXIS_POSITION-4 "0.0000000000"
*MEAS_COND_AXIS_POSITION-5 "0.0000000000"
*MEAS_COND_AXIS_POSITION-6 "0.0000000000"
*MEAS_COND_AXIS_POSITION-7 "-0.5445000000"
*MEAS_COND_AXIS_POSITION-8 "BB"
*MEAS_COND_AXIS_POSITION-9 "0.0000000000"
*MEAS_COND_AXIS_POSITION-10 "Soller_slit_5.0deg"
*MEAS_COND_AXIS_POSITION-11 "1/2deg"
*MEAS_COND_AXIS_POSITION-12 "1.6581000000"
*MEAS_COND_AXIS_POSITION-13 "-0.2778100000"
*MEAS_COND_AXIS_POSITION-14 "0.0000000000"
*MEAS_COND_AXIS_POSITION-15 "15.0mm"
*MEAS_COND_AXIS_POSITION-16 "None"
*MEAS_COND_AXIS_POSITION-17 "Cu_K-beta"
*MEAS_COND_AXIS_POSITION-18 "1/2deg"
*MEAS_COND_AXIS_POSITION-19 "0.300mm"
*MEAS_COND_AXIS_POSITION-20 "PSA_open"
*MEAS_COND_AXIS_POSITION-21 "Soller_slit_5.0deg"
*MEAS_COND_AXIS_POSITION-22 "None"
*MEAS_COND_AXIS_POSITION-23 "0.9862000000"
*MEAS_COND_AXIS_POSITION-24 "0.3000000000"
*MEAS_COND_AXIS_POSITION-25 "0.0000000000"
*MEAS_COND_AXIS_POSITION-26 "-"
*MEAS_COND_AXIS_POSITION-27 "No_unit"
*MEAS_COND_AXIS_POSITION-28 "None"
*MEAS_COND_AXIS_POSITION-29 "0.0650000000"
*MEAS_COND_AXIS_POSITION-30 "None"
*MEAS_COND_AXIS_POSITION-31 "50.0010000000"
*MEAS_COND_AXIS_POSITION-32 "49.9470000000"
*MEAS_COND_AXIS_UNIT-0 "deg"
*MEAS_COND_AXIS_UNIT-1 "deg"
*MEAS_COND_AXIS_UNIT-2 "deg"
*MEAS_COND_AXIS_UNIT-3 "mm"
*MEAS_COND_AXIS_UNIT-4 "deg"
*MEAS_COND_AXIS_UNIT-5 "deg"
*MEAS_COND_AXIS_UNIT-6 "deg"
*MEAS_COND_AXIS_UNIT-7 "mm"
*MEAS_COND_AXIS_UNIT-8 ""
*MEAS_COND_AXIS_UNIT-9 "pulse"
*MEAS_COND_AXIS_UNIT-10 ""
*MEAS_COND_AXIS_UNIT-11 ""
*MEAS_COND_AXIS_UNIT-12 "mm"
*MEAS_COND_AXIS_UNIT-13 "mm"
*MEAS_COND_AXIS_UNIT-14 ""
*MEAS_COND_AXIS_UNIT-15 ""
*MEAS_COND_AXIS_UNIT-16 ""
*MEAS_COND_AXIS_UNIT-17 ""
*MEAS_COND_AXIS_UNIT-18 ""
*MEAS_COND_AXIS_UNIT-19 ""
*MEAS_COND_AXIS_UNIT-20 ""
*MEAS_COND_AXIS_UNIT-21 ""
*MEAS_COND_AXIS_UNIT-22 ""
*MEAS_COND_AXIS_UNIT-23 "mm"
*MEAS_COND_AXIS_UNIT-24 "mm"
*MEAS_COND_AXIS_UNIT-25 "mm"
*MEAS_COND_AXIS_UNIT-26 ""
*MEAS_COND_AXIS_UNIT-27 ""
*MEAS_COND_AXIS_UNIT-28 ""
*MEAS_COND_AXIS_UNIT-29 "mm"
*MEAS_COND_AXIS_UNIT-30 ""
*MEAS_COND_AXIS_UNIT-31 "K"
*MEAS_COND_AXIS_UNIT-32 "K"
*MEAS_COND_COUNTER_CNTLOSS_CORR "0.0000000000"
*MEAS_COND_COUNTER_TAUDIFF "0.0000000000"
*MEAS_COND_COUNTER_TAUINT "0.0000000000"
*MEAS_COND_COUNTER_TEMP_CONDITION "NORMAL"
*MEAS_COND_IRRADIATION_MODE "OFF"
*MEAS_COND_IRRADIATION_WIDTH ""
*MEAS_COND_OPT_ATTR "Bragg-Brentano focusing"
*MEAS_COND_OPT_NAME "@BB focusing"
*MEAS_COND_UNSYMMETRIC_MODE "OFF"
*MEAS_COND_XG_CURRENT "30.0000000000"
*MEAS_COND_XG_VOLTAGE "40.0000000000"
*MEAS_COND_XG_WAVE_TYPE "Ka"
*MEAS_DATA_COUNT "2501.0000000000"
*MEAS_SCAN_AXIS_X "Theta/2-Theta"
*MEAS_SCAN_AXIS_X_INTERNAL "TwoThetaTheta"
*MEAS_SCAN_END_TIME "02/18/20 08:34:28"
*MEAS_SCAN_MODE "CONTINUOUS"
*MEAS_SCAN_MONITOR "0"
*MEAS_SCAN_RESOLUTION_X "0.0002"
*MEAS_SCAN_SPEED "0.301163"
*MEAS_SCAN_SPEED_UNIT "deg/min"
*MEAS_SCAN_SPEED_USER "0.3"
*MEAS_SCAN_START "30.0000000000"
*MEAS_SCAN_START_TIME "02/18/20 05:47:16"
*MEAS_SCAN_STEP "0.0200000000"
*MEAS_SCAN_STOP "80.0000000000"
*MEAS_SCAN_UNIT_X "deg"
*MEAS_SCAN_UNIT_Y "counts"
*RAS_HEADER_END
*RAS_INT_START
30.0000 683.1566 1.0000
30.0200 688.5173 1.0000
30.0400 664.9984 1.0000
30.0600 703.5617 1.0000
30.0800 661.2588 1.0000
30.1000 674.2910 1.0000
30.1200 673.6819 1.0000
30.1400 667.3493 1.0000
30.1600 682.4212 1.0000
30.1800 696.3073 1.0000
30.2000 694.4055 1.0000
30.2200 706.3042 1.0000
30.2400 677.4482 1.0000
30.2600 637.6440 1.0000
30.2800 648.9807 1.0000
30.3000 650.4465 1.0000
30.3200 671.8395 1.0000
30.3400 641.3364 1.0000
30.3600 672.0638 1.0000
30.3800 690.1694 1.0000
30.4000 749.4822 1.0000
30.4200 660.6827 1.0000
30.4400 628.8230 1.0000
30.4600 669.2284 1.0000
30.4800 666.6338 1.0000
30.5000 641.9343 1.0000
30.5200 656.4629 1.0000
30.5400 690.4914 1.0000
30.5600 619.5621 1.0000
30.5800 657.3146 1.0000
30.6000 677.5616 1.0000
30.6200 687.7725 1.0000
30.6400 676.1956 1.0000
30.6600 648.8552 1.0000
30.6800 660.7021 1.0000
30.7000 674.8439 1.0000
30.7200 675.5191 1.0000
30.7400 699.1284 1.0000
30.7600 728.5641 1.0000
30.7800 673.8394 1.0000
30.8000 642.6676 1.0000
30.8200 676.0465 1.0000
30.8400 658.3572 1.0000
30.8600 683.2158 1.0000
30.8800 734.5902 1.0000
30.9000 670.8434 1.0000
30.9200 699.1155 1.0000
30.9400 675.6640 1.0000
30.9600 672.5134 1.0000
30.9800 659.5981 1.0000
31.0000 670.0239 1.0000
31.0200 650.4169 1.0000
31.0400 642.2120 1.0000
31.0600 699.8011 1.0000
31.0800 664.3945 1.0000
31.1000 631.2142 1.0000
31.1200 657.6535 1.0000
31.1400 700.1440 1.0000
31.1600 685.7651 1.0000
31.1800 638.9268 1.0000
31.2000 681.8304 1.0000
31.2200 645.6635 1.0000
31.2400 704.7782 1.0000
31.2600 700.1638 1.0000
31.2800 660.6503 1.0000
31.3000 665.5917 1.0000
31.3200 677.7551 1.0000
31.3400 675.9947 1.0000
31.3600 659.7457 1.0000
31.3800 651.7714 1.0000
31.4000 651.0743 1.0000
31.4200 724.4279 1.0000
31.4400 706.1545 1.0000
31.4600 651.8867 1.0000
31.4800 679.7381 1.0000
31.5000 661.4060 1.0000
31.5200 687.6864 1.0000
31.5400 665.0865 1.0000
31.5600 662.4944 1.0000
31.5800 653.7212 1.0000
31.6000 681.7094 1.0000
31.6200 637.9619 1.0000
31.6400 632.5557 1.0000
31.6600 682.8658 1.0000
31.6800 642.1430 1.0000
31.7000 671.3645 1.0000
31.7200 702.8751 1.0000
31.7400 710.6359 1.0000
31.7600 669.9390 1.0000
31.7800 693.6695 1.0000
31.8000 680.7484 1.0000
31.8200 658.4828 1.0000
31.8400 706.5356 1.0000
31.8600 683.7833 1.0000
31.8800 674.6832 1.0000
31.9000 609.3920 1.0000
31.9200 676.9391 1.0000
31.9400 660.8364 1.0000
31.9600 675.1268 1.0000
31.9800 695.2142 1.0000
32.0000 685.4060 1.0000
32.0200 637.4539 1.0000
32.0400 679.0379 1.0000
32.0600 664.2541 1.0000
32.0800 642.8331 1.0000
32.1000 672.4916 1.0000
32.1200 641.0005 1.0000
32.1400 661.9423 1.0000
32.1600 677.1652 1.0000
32.1800 703.5934 1.0000
32.2000 635.5589 1.0000
32.2200 680.4329 1.0000
32.2400 686.5764 1.0000
32.2600 659.1786 1.0000
32.2800 668.1560 1.0000
32.3000 707.1703 1.0000
32.3200 638.5755 1.0000
32.3400 667.0807 1.0000
32.3600 720.3223 1.0000
32.3800 668.8864 1.0000
32.4000 640.4637 1.0000
32.4200 652.1536 1.0000
32.4400 673.2925 1.0000
32.4600 697.6876 1.0000
32.4800 705.0356 1.0000
32.5000 676.1758 1.0000
32.5200 610.7871 1.0000
32.5400 670.7964 1.0000
32.5600 686.7689 1.0000
32.5800 646.5011 1.0000
32.6000 690.6080 1.0000
32.6200 659.3184 1.0000
32.6400 711.1649 1.0000
32.6600 711.6714 1.0000
32.6800 653.3823 1.0000
32.7000 638.9727 1.0000
32.7200 671.1135 1.0000
32.7400 654.5350 1.0000
32.7600 673.3097 1.0000
32.7800 652.9306 1.0000
32.8000 642.9960 1.0000
32.8200 656.8202 1.0000
32.8400 624.3801 1.0000
32.8600 628.0586 1.0000
32.8800 683.0608 1.0000
32.9000 694.9940 1.0000
32.9200 667.1636 1.0000
32.9400 686.4321 1.0000
32.9600 676.2059 1.0000
32.9800 673.0156 1.0000
33.0000 710.7034 1.0000
33.0200 680.6169 1.0000
33.0400 666.9552 1.0000
33.0600 667.5945 1.0000
33.0800 661.5001 1.0000
33.1000 659.6313 1.0000
33.1200 707.6969 1.0000
33.1400 662.5475 1.0000
33.1600 666.6933 1.0000
33.1800 646.2740 1.0000
33.2000 699.0104 1.0000
33.2200 683.8362 1.0000
33.2400 652.6468 1.0000
33.2600 684.0077 1.0000
33.2800 664.6280 1.0000
33.3000 688.0588 1.0000
33.3200 701.7985 1.0000
33.3400 690.1387 1.0000
33.3600 665.3455 1.0000
33.3800 674.3022 1.0000
33.4000 688.0527 1.0000
33.4200 634.0996 1.0000
33.4400 713.8860 1.0000
33.4600 663.4725 1.0000
33.4800 669.0363 1.0000
33.5000 662.3732 1.0000
33.5200 697.2856 1.0000
33.5400 643.4415 1.0000
33.5600 686.3524 1.0000
33.5800 672.3985 1.0000
33.6000 641.3958 1.0000
33.6200 645.7877 1.0000
33.6400 678.3128 1.0000
33.6600 728.4267 1.0000
33.6800 722.4514 1.0000
33.7000 690.3790 1.0000
33.7200 678.6602 1.0000
33.7400 677.7815 1.0000
33.7600 697.4273 1.0000
33.7800 723.4024 1.0000
33.8000 647.3016 1.0000
33.8200 695.3038 1.0000
33.8400 708.6017 1.0000
33.8600 664.3424 1.0000
33.8800 738.8549 1.0000
33.9000 741.4957 1.0000
33.9200 796.3947 1.0000
33.9400 770.2088 1.0000
33.9600 859.3955 1.0000
33.9800 939.1544 1.0000
34.0000 1109.1281 1.0000
34.0200 1237.8145 1.0000
34.0400 1250.8739 1.0000
34.0600 1407.5304 1.0000
34.0800 1646.5438 1.0000
34.1000 1881.2219 1.0000
34.1200 1798.9500 1.0000
34.1400 1237.2177 1.0000
34.1600 1196.5228 1.0000
34.1800 1194.7118 1.0000
34.2000 1153.5045 1.0000
34.2200 956.9662 1.0000
34.2400 767.6375 1.0000
34.2600 724.5799 1.0000
34.2800 694.9977 1.0000
34.3000 724.7910 1.0000
34.3200 653.1036 1.0000
34.3400 695.9053 1.0000
34.3600 705.2749 1.0000
34.3800 670.0635 1.0000
34.4000 720.4559 1.0000
34.4200 700.7589 1.0000
34.4400 673.3441 1.0000
34.4600 704.6573 1.0000
34.4800 678.0742 1.0000
34.5000 672.7153 1.0000
34.5200 656.9575 1.0000
34.5400 653.6560 1.0000
34.5600 691.2030 1.0000
34.5800 677.8907 1.0000
34.6000 647.5602 1.0000
34.6200 670.0866 1.0000
34.6400 698.4970 1.0000
34.6600 662.9184 1.0000
34.6800 656.4448 1.0000
34.7000 655.4404 1.0000
34.7200 674.5776 1.0000
34.7400 657.5071 1.0000
34.7600 677.7992 1.0000
34.7800 654.1061 1.0000
34.8000 680.3280 1.0000
34.8200 655.4692 1.0000
34.8400 654.4518 1.0000
34.8600 692.3656 1.0000
34.8800 693.1680 1.0000
34.9000 675.6688 1.0000
34.9200 655.9351 1.0000
34.9400 684.2699 1.0000
34.9600 667.3947 1.0000
34.9800 650.1451 1.0000
35.0000 661.4777 1.0000
35.0200 677.6221 1.0000
35.0400 685.9345 1.0000
35.0600 642.9243 1.0000
35.0800 647.5392 1.0000
35.1000 675.1406 1.0000
35.1200 703.3286 1.0000
35.1400 687.2064 1.0000
35.1600 690.6194 1.0000
35.1800 650.0142 1.0000
35.2000 682.9098 1.0000
35.2200 643.7728 1.0000
35.2400 653.9312 1.0000
35.2600 696.3066 1.0000
35.2800 690.5354 1.0000
35.3000 659.0308 1.0000
35.3200 709.4453 1.0000
35.3400 700.5574 1.0000
35.3600 674.5264 1.0000
35.3800 666.6226 1.0000
35.4000 681.5500 1.0000
35.4200 635.8729 1.0000
35.4400 667.4099 1.0000
35.4600 652.3567 1.0000
35.4800 651.0760 1.0000
35.5000 682.6848 1.0000
35.5200 620.2526 1.0000
35.5400 665.5090 1.0000
35.5600 685.6021 1.0000
35.5800 689.7591 1.0000
35.6000 683.9695 1.0000
35.6200 679.3978 1.0000
35.6400 673.4490 1.0000
35.6600 654.6594 1.0000
35.6800 681.7065 1.0000
35.7000 685.4548 1.0000
35.7200 663.4023 1.0000
35.7400 660.4213 1.0000
35.7600 725.4556 1.0000
35.7800 654.6646 1.0000
35.8000 652.4757 1.0000
