*RAS_DATA_START
*RAS_HEADER_START
*ATMOSPHERE_TEMP_DATAOUT "0.0000000000"
*ATMOSPHERE_TEMP_END "10.0310000000"
*ATMOSPHERE_TEMP_START "9.9830000000"
*ATMOSPHERE_TEMP_UNIT "K"
*ATMOSPHERE_TEMP_UNIT_DISP "1.0000000000"
*DISP_FMT_X "%.3f"
*DISP_FMT_Y "%.0f"
*DISP_FULLSCALE "2310.9670749399"
*DISP_LINE_COLOR "255.0000000000"
*DISP_LINE_STYLE "0.0000000000"
*DISP_LINE_WIDTH "0.2500000000"
*DISP_NOTE "Collected Data-3"
*DISP_OFFSET_Y "0.0000000000"
*DISP_PEAKSEARCH_UNIT_Y "cps"
*DISP_RANGE_BOTTOM "0.0000000000"
*DISP_RANGE_LEFT "30.0000000000"
*DISP_RANGE_LOGCUTOFF "0.0100000000"
*DISP_RANGE_RIGHT "80.0000000000"
*DISP_RANGE_TOP "2310.9670749399"
*DISP_SCALE_MODE_Y "0.0000000000"
*DISP_TAB_NAME "Theta/2-Theta"
*DISP_TITLE_Y "Intensity"
*DISP_UNIT_Y "cps"
*DISP_WINDOW_NAME "MSG_MACROENGINE"
*FILE_COMMENT " "
*FILE_MD5 ""
*FILE_MEMO " "
*FILE_OPERATOR "administrator"
*FILE_PART_ID "MEAS_KHP2_00068"
*FILE_SAMPLE " "
*FILE_TYPE "RAS_RAW"
*FILE_USERGROUP "System Manager"
*FILE_VERSION "1.0000000000"
*HW_ATTACHMENT_ID "ATT0097"
*HW_ATTACHMENT_NAME "極低温アタッチメント(Z)-4K|Ultra-Low Temp. Att.(Z)-4K"
*HW_COUNTER_ID-0 "CUT0021"
*HW_COUNTER_ID-1 "CUT0051"
*HW_COUNTER_ID-2 "CUT0020"
*HW_COUNTER_ID-3 "CSL0021"
*HW_COUNTER_ID-4 "CMC0021"
*HW_COUNTER_NAME-0 "SC-70|SC-70"
*HW_COUNTER_NAME-1 "HyPix 3000(H)|HyPix 3000(H)"
*HW_COUNTER_NAME-2 "None|None"
*HW_COUNTER_NAME-3 "BBM|BBM"
*HW_COUNTER_NAME-4 "検出器モノクロメータ|Detector monochromator"
*HW_COUNTER_SELECT_NAME "HyPix 3000(H)|HyPix 3000(H)"
*HW_GONIOMETER_ID "GON0023"
*HW_GONIOMETER_NAME "SmartLab|SmartLab"
*HW_GONIOMETER_RADIUS-0 "90.0"
*HW_GONIOMETER_RADIUS-1 "114.0"
*HW_GONIOMETER_RADIUS-2 "190.0"
*HW_GONIOMETER_RADIUS-3 "300.0"
*HW_GONIOMETER_RADIUS-4 "187.0"
*HW_GONIOMETER_RADIUS-5 "300.0"
*HW_GONIOMETER_RADIUS-6 "113.0"
*HW_GONIOMETER_RADIUS-7 "331.0"
*HW_I_OPT_ID-0 "CBO0021"
*HW_I_OPT_ID-1 "ICR0023"
*HW_I_OPT_ID-2 "ISL0021"
*HW_I_OPT_ID-3 "ISO0021"
*HW_I_OPT_ID-4 "IAD0021"
*HW_I_OPT_ID-5 "IPR0001"
*HW_I_OPT_NAME-0 "CBOユニット|CBO unit"
*HW_I_OPT_NAME-1 "標準入射光学ユニット|Standard incident optical unit"
*HW_I_OPT_NAME-2 "標準入射スリットボックス|Standard incident slit box"
*HW_I_OPT_NAME-3 "入射平行スリット|Incident parallel slit"
*HW_I_OPT_NAME-4 "長手制限スリット|Length limiting slit"
*HW_I_OPT_NAME-5 "None|None"
*HW_R_ATTENUATER_AUTOMODE "0"
*HW_R_OPT_ID-0 "RSS0022"
*HW_R_OPT_ID-1 "RCR0022"
*HW_R_OPT_ID-2 "RSO0021"
*HW_R_OPT_ID-3 "RRS0022"
*HW_R_OPT_ID-4 "ATN0020"
*HW_R_OPT_ID-5 "RFL0021"
*HW_R_OPT_ID-6 "RAD0021"
*HW_R_OPT_NAME-0 "受光スリットボックス1(Zr軸付)|Receiving slit box # 1 (w/ Zr Axis)"
*HW_R_OPT_NAME-1 "標準受光光学ユニット1|Standard receiving unit # 1"
*HW_R_OPT_NAME-2 "標準受光光学ユニット2|Standard receiving optical unit # 2"
*HW_R_OPT_NAME-3 "仮想受光スリット2|Virtual receiving slit #2"
*HW_R_OPT_NAME-4 "無し|None"
*HW_R_OPT_NAME-5 "Cu Kβ|Cu K-beta"
*HW_R_OPT_NAME-6 "調整用受光スリット|Alignment receiving slit"
*HW_SAMPLE_HOLDER_ID "SMP0020"
*HW_SAMPLE_HOLDER_NAME "無し|None"
*HW_XG_CURRENT_MAX "50"
*HW_XG_CURRENT_MIN "2"
*HW_XG_CURRENT_RESOLUTION "1"
*HW_XG_CURRENT_UNIT "mA"
*HW_XG_FOCUS "0.4mm x 8mm"
*HW_XG_FOCUS_TYPE "Fine"
*HW_XG_ID "1200"
*HW_XG_NAME "3kW 封入管(ID:1200)|3kW Sealed tube(ID:1200)"
*HW_XG_TARGET_ATOMIC_NUMBER "29.0000000000"
*HW_XG_TARGET_NAME "Cu"
*HW_XG_TYPE "Hermetic"
*HW_XG_VOLTAGE_MAX "50"
*HW_XG_VOLTAGE_MIN "20"
*HW_XG_VOLTAGE_RESOLUTION "1"
*HW_XG_VOLTAGE_UNIT "kV"
*HW_XG_WATT_MAX "1.500"
*HW_XG_WATT_UNIT "kW"
*HW_XG_WAVE_LENGTH_ALPHA1 "1.540593"
*HW_XG_WAVE_LENGTH_ALPHA2 "1.544414"
*HW_XG_WAVE_LENGTH_BETA "1.392250"
*MEAS_COND_AXIS_NAME-0 "Theta/2-Theta"
*MEAS_COND_AXIS_NAME-1 "2-Theta"
*MEAS_COND_AXIS_NAME-2 "Omega"
*MEAS_COND_AXIS_NAME-3 "Z"
*MEAS_COND_AXIS_NAME-4 "2-Theta/Omega"
*MEAS_COND_AXIS_NAME-5 "Theta_s"
*MEAS_COND_AXIS_NAME-6 "Theta_d"
*MEAS_COND_AXIS_NAME-7 "Ts"
*MEAS_COND_AXIS_NAME-8 "CBO selection slit"
*MEAS_COND_AXIS_NAME-9 "M"
*MEAS_COND_AXIS_NAME-10 "Incident parallel slit"
*MEAS_COND_AXIS_NAME-11 "Incident slit"
*MEAS_COND_AXIS_NAME-12 ""
*MEAS_COND_AXIS_NAME-13 "Zs"
*MEAS_COND_AXIS_NAME-14 "Incident monochromator"
*MEAS_COND_AXIS_NAME-15 "Length limiting slit"
*MEAS_COND_AXIS_NAME-16 "Center slit"
*MEAS_COND_AXIS_NAME-17 "Filter"
*MEAS_COND_AXIS_NAME-18 "Receiving slit # 1"
*MEAS_COND_AXIS_NAME-19 "Receiving slit # 2"
*MEAS_COND_AXIS_NAME-20 "Receiving optical device"
*MEAS_COND_AXIS_NAME-21 "Receiving parallel slit"
*MEAS_COND_AXIS_NAME-22 "Alignment receiving slit"
*MEAS_COND_AXIS_NAME-23 ""
*MEAS_COND_AXIS_NAME-24 ""
*MEAS_COND_AXIS_NAME-25 "Zd"
*MEAS_COND_AXIS_NAME-26 "Attenuator"
*MEAS_COND_AXIS_NAME-27 "Diffracted beam monochromator"
*MEAS_COND_AXIS_NAME-28 "Monochromator slit"
*MEAS_COND_AXIS_NAME-29 "Zr"
*MEAS_COND_AXIS_NAME-30 "Primary beam"
*MEAS_COND_AXIS_NAME-31 "Temperature"
*MEAS_COND_AXIS_NAME-32 "Temperature2"
*MEAS_COND_AXIS_NAME_INTERNAL-0 "TwoThetaTheta"
*MEAS_COND_AXIS_NAME_INTERNAL-1 "TwoTheta"
*MEAS_COND_AXIS_NAME_INTERNAL-2 "Omega"
*MEAS_COND_AXIS_NAME_INTERNAL-3 "Z"
*MEAS_COND_AXIS_NAME_INTERNAL-4 "TwoThetaOmega"
*MEAS_COND_AXIS_NAME_INTERNAL-5 "ThetaS"
*MEAS_COND_AXIS_NAME_INTERNAL-6 "ThetaD"
*MEAS_COND_AXIS_NAME_INTERNAL-7 "Ts"
*MEAS_COND_AXIS_NAME_INTERNAL-8 "CBO"
*MEAS_COND_AXIS_NAME_INTERNAL-9 "CBO-M"
*MEAS_COND_AXIS_NAME_INTERNAL-10 "IncidentSollerSlit"
*MEAS_COND_AXIS_NAME_INTERNAL-11 "IncidentSlitBox"
*MEAS_COND_AXIS_NAME_INTERNAL-12 "IncidentSlitBox-_Axis"
*MEAS_COND_AXIS_NAME_INTERNAL-13 "Zs"
*MEAS_COND_AXIS_NAME_INTERNAL-14 "IncidentMonochromator"
*MEAS_COND_AXIS_NAME_INTERNAL-15 "IncidentAxdSlit"
*MEAS_COND_AXIS_NAME_INTERNAL-16 "CenterSlit"
*MEAS_COND_AXIS_NAME_INTERNAL-17 "Filter"
*MEAS_COND_AXIS_NAME_INTERNAL-18 "ReceivingSlitBox1"
*MEAS_COND_AXIS_NAME_INTERNAL-19 "ReceivingSlitBox2"
*MEAS_COND_AXIS_NAME_INTERNAL-20 "ReceivingOptics"
*MEAS_COND_AXIS_NAME_INTERNAL-21 "ReceivingSollerSlit"
*MEAS_COND_AXIS_NAME_INTERNAL-22 "ReceivingAxdSlit"
*MEAS_COND_AXIS_NAME_INTERNAL-23 "ReceivingSlitBox1-_Axis"
*MEAS_COND_AXIS_NAME_INTERNAL-24 "ReceivingSlitBox2-_Axis"
*MEAS_COND_AXIS_NAME_INTERNAL-25 "ReceivingSlitBox2-Zd"
*MEAS_COND_AXIS_NAME_INTERNAL-26 "Attenuator"
*MEAS_COND_AXIS_NAME_INTERNAL-27 "CounterMonochromator"
*MEAS_COND_AXIS_NAME_INTERNAL-28 "CounterSlit"
*MEAS_COND_AXIS_NAME_INTERNAL-29 "ReceivingSlitBox1-Zr"
*MEAS_COND_AXIS_NAME_INTERNAL-30 "IncidentPrimary"
*MEAS_COND_AXIS_NAME_INTERNAL-31 "Temperature"
*MEAS_COND_AXIS_NAME_INTERNAL-32 "Temperature2"
*MEAS_COND_AXIS_NAME_MAGICNO-0 "83951616.0000000000"
*MEAS_COND_AXIS_NAME_MAGICNO-1 "268632064.0000000000"
*MEAS_COND_AXIS_NAME_MAGICNO-2 "268500992.0000000000"
*MEAS_COND_AXIS_NAME_MAGICNO-3 "285278208.0000000000"
*MEAS_COND_AXIS_NAME_MAGICNO-4 "83951616.0000000000"
*MEAS_COND_AXIS_NAME_MAGICNO-5 "131072.0000000000"
*MEAS_COND_AXIS_NAME_MAGICNO-6 "131072.0000000000"
*MEAS_COND_AXIS_NAME_MAGICNO-7 "318898176.0000000000"
*MEAS_COND_AXIS_NAME_MAGICNO-8 "20971521.0000000000"
*MEAS_COND_AXIS_NAME_MAGICNO-9 "285343744.0000000000"
*MEAS_COND_AXIS_NAME_MAGICNO-10 "20971521.0000000000"
*MEAS_COND_AXIS_NAME_MAGICNO-11 "22020097.0000000000"
*MEAS_COND_AXIS_NAME_MAGICNO-12 "25165824.0000000000"
*MEAS_COND_AXIS_NAME_MAGICNO-13 "318898176.0000000000"
*MEAS_COND_AXIS_NAME_MAGICNO-14 "1.0000000000"
*MEAS_COND_AXIS_NAME_MAGICNO-15 "20971521.0000000000"
*MEAS_COND_AXIS_NAME_MAGICNO-16 "20971521.0000000000"
*MEAS_COND_AXIS_NAME_MAGICNO-17 "20971521.0000000000"
*MEAS_COND_AXIS_NAME_MAGICNO-18 "23068673.0000000000"
*MEAS_COND_AXIS_NAME_MAGICNO-19 "23068673.0000000000"
*MEAS_COND_AXIS_NAME_MAGICNO-20 "20971521.0000000000"
*MEAS_COND_AXIS_NAME_MAGICNO-21 "20971521.0000000000"
*MEAS_COND_AXIS_NAME_MAGICNO-22 "20971521.0000000000"
*MEAS_COND_AXIS_NAME_MAGICNO-23 "25165824.0000000000"
*MEAS_COND_AXIS_NAME_MAGICNO-24 "25165824.0000000000"
*MEAS_COND_AXIS_NAME_MAGICNO-25 "285343744.0000000000"
*MEAS_COND_AXIS_NAME_MAGICNO-26 "0.0000000000"
*MEAS_COND_AXIS_NAME_MAGICNO-27 "20971521.0000000000"
*MEAS_COND_AXIS_NAME_MAGICNO-28 "20971521.0000000000"
*MEAS_COND_AXIS_NAME_MAGICNO-29 "285343744.0000000000"
*MEAS_COND_AXIS_NAME_MAGICNO-30 "20971521.0000000000"
*MEAS_COND_AXIS_NAME_MAGICNO-31 "0.0000000000"
*MEAS_COND_AXIS_NAME_MAGICNO-32 "0.0000000000"
*MEAS_COND_AXIS_OFFSET-0 "-"
*MEAS_COND_AXIS_OFFSET-1 "0.1390000000"
*MEAS_COND_AXIS_OFFSET-2 "0.0531000000"
*MEAS_COND_AXIS_OFFSET-3 "-"
*MEAS_COND_AXIS_OFFSET-4 "-"
*MEAS_COND_AXIS_OFFSET-5 "0.0531000000"
*MEAS_COND_AXIS_OFFSET-6 "0.0859000000"
*MEAS_COND_AXIS_OFFSET-7 "-"
*MEAS_COND_AXIS_OFFSET-8 "-"
*MEAS_COND_AXIS_OFFSET-9 "-"
*MEAS_COND_AXIS_OFFSET-10 "-"
*MEAS_COND_AXIS_OFFSET-11 "-"
*MEAS_COND_AXIS_OFFSET-12 "-"
*MEAS_COND_AXIS_OFFSET-13 "-"
*MEAS_COND_AXIS_OFFSET-14 "-"
*MEAS_COND_AXIS_OFFSET-15 "-"
*MEAS_COND_AXIS_OFFSET-16 "-"
*MEAS_COND_AXIS_OFFSET-17 "-"
*MEAS_COND_AXIS_OFFSET-18 "-"
*MEAS_COND_AXIS_OFFSET-19 "-"
*MEAS_COND_AXIS_OFFSET-20 "-"
*MEAS_COND_AXIS_OFFSET-21 "-"
*MEAS_COND_AXIS_OFFSET-22 "-"
*MEAS_COND_AXIS_OFFSET-23 "-"
*MEAS_COND_AXIS_OFFSET-24 "-"
*MEAS_COND_AXIS_OFFSET-25 "-"
*MEAS_COND_AXIS_OFFSET-26 "-"
*MEAS_COND_AXIS_OFFSET-27 "-"
*MEAS_COND_AXIS_OFFSET-28 "-"
*MEAS_COND_AXIS_OFFSET-29 "-"
*MEAS_COND_AXIS_OFFSET-30 "-"
*MEAS_COND_AXIS_OFFSET-31 "0.0000000000"
*MEAS_COND_AXIS_OFFSET-32 "0.0000000000"
*MEAS_COND_AXIS_POSITION-0 "0.0000000000"
*MEAS_COND_AXIS_POSITION-1 "0.0000000000"
*MEAS_COND_AXIS_POSITION-2 "0.0000000000"
*MEAS_COND_AXIS_POSITION-3 "0.6094000000"
*MEAS_COND_AXIS_POSITION-4 "0.0000000000"
*MEAS_COND_AXIS_POSITION-5 "0.0000000000"
*MEAS_COND_AXIS_POSITION-6 "0.0000000000"
*MEAS_COND_AXIS_POSITION-7 "-0.5445000000"
*MEAS_COND_AXIS_POSITION-8 "BB"
*MEAS_COND_AXIS_POSITION-9 "0.0000000000"
*MEAS_COND_AXIS_POSITION-10 "Soller_slit_5.0deg"
*MEAS_COND_AXIS_POSITION-11 "1/2deg"
*MEAS_COND_AXIS_POSITION-12 "1.6581000000"
*MEAS_COND_AXIS_POSITION-13 "-0.2778100000"
*MEAS_COND_AXIS_POSITION-14 "0.0000000000"
*MEAS_COND_AXIS_POSITION-15 "15.0mm"
*MEAS_COND_AXIS_POSITION-16 "None"
*MEAS_COND_AXIS_POSITION-17 "Cu_K-beta"
*MEAS_COND_AXIS_POSITION-18 "1/2deg"
*MEAS_COND_AXIS_POSITION-19 "0.300mm"
*MEAS_COND_AXIS_POSITION-20 "PSA_open"
*MEAS_COND_AXIS_POSITION-21 "Soller_slit_5.0deg"
*MEAS_COND_AXIS_POSITION-22 "None"
*MEAS_COND_AXIS_POSITION-23 "0.9862000000"
*MEAS_COND_AXIS_POSITION-24 "0.3000000000"
*MEAS_COND_AXIS_POSITION-25 "0.0000000000"
*MEAS_COND_AXIS_POSITION-26 "-"
*MEAS_COND_AXIS_POSITION-27 "No_unit"
*MEAS_COND_AXIS_POSITION-28 "None"
*MEAS_COND_AXIS_POSITION-29 "0.0650000000"
*MEAS_COND_AXIS_POSITION-30 "None"
*MEAS_COND_AXIS_POSITION-31 "9.9830000000"
*MEAS_COND_AXIS_POSITION-32 "10.0330000000"
*MEAS_COND_AXIS_UNIT-0 "deg"
*MEAS_COND_AXIS_UNIT-1 "deg"
*MEAS_COND_AXIS_UNIT-2 "deg"
*MEAS_COND_AXIS_UNIT-3 "mm"
*MEAS_COND_AXIS_UNIT-4 "deg"
*MEAS_COND_AXIS_UNIT-5 "deg"
*MEAS_COND_AXIS_UNIT-6 "deg"
*MEAS_COND_AXIS_UNIT-7 "mm"
*MEAS_COND_AXIS_UNIT-8 ""
*MEAS_COND_AXIS_UNIT-9 "pulse"
*MEAS_COND_AXIS_UNIT-10 ""
*MEAS_COND_AXIS_UNIT-11 ""
*MEAS_COND_AXIS_UNIT-12 "mm"
*MEAS_COND_AXIS_UNIT-13 "mm"
*MEAS_COND_AXIS_UNIT-14 ""
*MEAS_COND_AXIS_UNIT-15 ""
*MEAS_COND_AXIS_UNIT-16 ""
*MEAS_COND_AXIS_UNIT-17 ""
*MEAS_COND_AXIS_UNIT-18 ""
*MEAS_COND_AXIS_UNIT-19 ""
*MEAS_COND_AXIS_UNIT-20 ""
*MEAS_COND_AXIS_UNIT-21 ""
*MEAS_COND_AXIS_UNIT-22 ""
*MEAS_COND_AXIS_UNIT-23 "mm"
*MEAS_COND_AXIS_UNIT-24 "mm"
*MEAS_COND_AXIS_UNIT-25 "mm"
*MEAS_COND_AXIS_UNIT-26 ""
*MEAS_COND_AXIS_UNIT-27 ""
*MEAS_COND_AXIS_UNIT-28 ""
*MEAS_COND_AXIS_UNIT-29 "mm"
*MEAS_COND_AXIS_UNIT-30 ""
*MEAS_COND_AXIS_UNIT-31 "K"
*MEAS_COND_AXIS_UNIT-32 "K"
*MEAS_COND_COUNTER_CNTLOSS_CORR "0.0000000000"
*MEAS_COND_COUNTER_TAUDIFF "0.0000000000"
*MEAS_COND_COUNTER_TAUINT "0.0000000000"
*MEAS_COND_COUNTER_TEMP_CONDITION "NORMAL"
*MEAS_COND_IRRADIATION_MODE "OFF"
*MEAS_COND_IRRADIATION_WIDTH ""
*MEAS_COND_OPT_ATTR "Bragg-Brentano focusing"
*MEAS_COND_OPT_NAME "@BB focusing"
*MEAS_COND_UNSYMMETRIC_MODE "OFF"
*MEAS_COND_XG_CURRENT "30.0000000000"
*MEAS_COND_XG_VOLTAGE "40.0000000000"
*MEAS_COND_XG_WAVE_TYPE "Ka"
*MEAS_DATA_COUNT "2501.0000000000"
*MEAS_SCAN_AXIS_X "Theta/2-Theta"
*MEAS_SCAN_AXIS_X_INTERNAL "TwoThetaTheta"
*MEAS_SCAN_END_TIME "02/17/20 18:24:00"
*MEAS_SCAN_MODE "CONTINUOUS"
*MEAS_SCAN_MONITOR "0"
*MEAS_SCAN_RESOLUTION_X "0.0002"
*MEAS_SCAN_SPEED "0.301163"
*MEAS_SCAN_SPEED_UNIT "deg/min"
*MEAS_SCAN_SPEED_USER "0.3"
*MEAS_SCAN_START "30.0000000000"
*MEAS_SCAN_START_TIME "02/17/20 15:36:48"
*MEAS_SCAN_STEP "0.0200000000"
*MEAS_SCAN_STOP "80.0000000000"
*MEAS_SCAN_UNIT_X "deg"
*MEAS_SCAN_UNIT_Y "counts"
*RAS_HEADER_END
*RAS_INT_START
30.0000 701.1528 1.0000
30.0200 686.7471 1.0000
30.0400 665.1533 1.0000
30.0600 666.6270 1.0000
30.0800 712.2677 1.0000
30.1000 698.5408 1.0000
30.1200 636.7539 1.0000
30.1400 666.0737 1.0000
30.1600 648.4019 1.0000
30.1800 673.8663 1.0000
30.2000 688.0134 1.0000
30.2200 705.3241 1.0000
30.2400 699.5486 1.0000
30.2600 732.6763 1.0000
30.2800 653.9750 1.0000
30.3000 669.4126 1.0000
30.3200 632.2172 1.0000
30.3400 675.7300 1.0000
30.3600 682.8853 1.0000
30.3800 686.1821 1.0000
30.4000 688.6420 1.0000
30.4200 662.8632 1.0000
30.4400 697.4114 1.0000
30.4600 716.4564 1.0000
30.4800 667.4601 1.0000
30.5000 644.9617 1.0000
30.5200 672.4401 1.0000
30.5400 718.9973 1.0000
30.5600 678.5844 1.0000
30.5800 686.9230 1.0000
30.6000 647.2684 1.0000
30.6200 705.3490 1.0000
30.6400 663.4707 1.0000
30.6600 745.7753 1.0000
30.6800 657.3204 1.0000
30.7000 661.5993 1.0000
30.7200 653.8798 1.0000
30.7400 689.6364 1.0000
30.7600 675.3228 1.0000
30.7800 686.0451 1.0000
30.8000 710.3358 1.0000
30.8200 663.5179 1.0000
30.8400 643.1061 1.0000
30.8600 656.6528 1.0000
30.8800 654.3358 1.0000
30.9000 677.9406 1.0000
30.9200 700.1924 1.0000
30.9400 662.4853 1.0000
30.9600 658.3819 1.0000
30.9800 670.6006 1.0000
31.0000 671.0825 1.0000
31.0200 636.6610 1.0000
31.0400 699.6924 1.0000
31.0600 685.9427 1.0000
31.0800 635.8687 1.0000
31.1000 639.3424 1.0000
31.1200 685.5751 1.0000
31.1400 667.7510 1.0000
31.1600 720.3706 1.0000
31.1800 702.6011 1.0000
31.2000 673.3952 1.0000
31.2200 626.8329 1.0000
31.2400 686.8712 1.0000
31.2600 700.1686 1.0000
31.2800 715.0415 1.0000
31.3000 708.0326 1.0000
31.3200 666.4716 1.0000
31.3400 646.9201 1.0000
31.3600 720.3467 1.0000
31.3800 721.8969 1.0000
31.4000 684.7132 1.0000
31.4200 688.0280 1.0000
31.4400 645.5873 1.0000
31.4600 699.2383 1.0000
31.4800 674.3444 1.0000
31.5000 649.7338 1.0000
31.5200 698.6594 1.0000
31.5400 674.9693 1.0000
31.5600 702.9733 1.0000
31.5800 691.3030 1.0000
31.6000 656.7112 1.0000
31.6200 680.8381 1.0000
31.6400 700.8139 1.0000
31.6600 706.1529 1.0000
31.6800 652.6953 1.0000
31.7000 692.1431 1.0000
31.7200 654.9761 1.0000
31.7400 661.0591 1.0000
31.7600 645.7296 1.0000
31.7800 666.0818 1.0000
31.8000 699.8516 1.0000
31.8200 646.5395 1.0000
31.8400 693.7916 1.0000
31.8600 652.8110 1.0000
31.8800 688.0038 1.0000
31.9000 650.9477 1.0000
31.9200 630.9077 1.0000
31.9400 702.5019 1.0000
31.9600 666.5961 1.0000
31.9800 654.7949 1.0000
32.0000 710.7553 1.0000
32.0200 653.9460 1.0000
32.0400 672.8549 1.0000
32.0600 662.9523 1.0000
32.0800 648.6642 1.0000
32.1000 693.9515 1.0000
32.1200 642.7772 1.0000
32.1400 666.4489 1.0000
32.1600 668.5964 1.0000
32.1800 660.6767 1.0000
32.2000 666.0902 1.0000
32.2200 677.0659 1.0000
32.2400 674.0224 1.0000
32.2600 673.3691 1.0000
32.2800 651.0481 1.0000
32.3000 675.2187 1.0000
32.3200 637.8909 1.0000
32.3400 660.7506 1.0000
32.3600 656.0330 1.0000
32.3800 645.4538 1.0000
32.4000 700.2077 1.0000
32.4200 691.7341 1.0000
32.4400 672.0731 1.0000
32.4600 655.4099 1.0000
32.4800 656.5568 1.0000
32.5000 644.0083 1.0000
32.5200 665.4504 1.0000
32.5400 668.8163 1.0000
32.5600 689.0884 1.0000
32.5800 616.9739 1.0000
32.6000 658.8862 1.0000
32.6200 670.6300 1.0000
32.6400 715.8576 1.0000
32.6600 669.8414 1.0000
32.6800 644.3363 1.0000
32.7000 684.0336 1.0000
32.7200 645.2196 1.0000
32.7400 643.2594 1.0000
32.7600 673.0656 1.0000
32.7800 722.9408 1.0000
32.8000 630.1042 1.0000
32.8200 716.8497 1.0000
32.8400 654.8085 1.0000
32.8600 636.2426 1.0000
32.8800 702.7299 1.0000
32.9000 679.8928 1.0000
32.9200 658.3171 1.0000
32.9400 706.3497 1.0000
32.9600 719.5475 1.0000
32.9800 662.5574 1.0000
33.0000 662.3328 1.0000
33.0200 666.0903 1.0000
33.0400 619.3572 1.0000
33.0600 670.7037 1.0000
33.0800 692.0535 1.0000
33.1000 648.0225 1.0000
33.1200 645.9509 1.0000
33.1400 657.0676 1.0000
33.1600 713.0511 1.0000
33.1800 716.1252 1.0000
33.2000 652.3330 1.0000
33.2200 627.1559 1.0000
33.2400 701.5050 1.0000
33.2600 650.8853 1.0000
33.2800 691.7983 1.0000
33.3000 652.6110 1.0000
33.3200 655.3942 1.0000
33.3400 720.1476 1.0000
33.3600 640.6844 1.0000
33.3800 663.0071 1.0000
33.4000 694.9838 1.0000
33.4200 683.0530 1.0000
33.4400 692.7462 1.0000
33.4600 650.8665 1.0000
33.4800 646.5259 1.0000
33.5000 685.2922 1.0000
33.5200 667.3862 1.0000
33.5400 660.5992 1.0000
33.5600 652.2812 1.0000
33.5800 637.1191 1.0000
33.6000 637.7067 1.0000
33.6200 668.5223 1.0000
33.6400 657.4155 1.0000
33.6600 684.3513 1.0000
33.6800 695.7610 1.0000
33.7000 692.3330 1.0000
33.7200 673.9655 1.0000
33.7400 674.7210 1.0000
33.7600 708.2531 1.0000
33.7800 693.2633 1.0000
33.8000 651.1375 1.0000
33.8200 711.8532 1.0000
33.8400 738.3080 1.0000
33.8600 717.4328 1.0000
33.8800 705.3642 1.0000
33.9000 769.6285 1.0000
33.9200 796.0550 1.0000
33.9400 799.6066 1.0000
33.9600 811.8979 1.0000
33.9800 934.5708 1.0000
34.0000 1014.1434 1.0000
34.0200 1208.6414 1.0000
34.0400 1292.6184 1.0000
34.0600 1418.1859 1.0000
34.0800 1566.6355 1.0000
34.1000 1763.9143 1.0000
34.1200 1639.0161 1.0000
34.1400 1268.3037 1.0000
34.1600 1162.4005 1.0000
34.1800 1147.3708 1.0000
34.2000 1132.6049 1.0000
34.2200 929.1728 1.0000
34.2400 803.7463 1.0000
34.2600 739.7843 1.0000
34.2800 742.0431 1.0000
34.3000 728.1154 1.0000
34.3200 704.5276 1.0000
34.3400 739.1372 1.0000
34.3600 673.5410 1.0000
34.3800 657.2722 1.0000
34.4000 686.7511 1.0000
34.4200 695.8655 1.0000
34.4400 684.3257 1.0000
34.4600 718.6022 1.0000
34.4800 660.7634 1.0000
34.5000 669.8698 1.0000
34.5200 699.9818 1.0000
34.5400 651.0574 1.0000
34.5600 692.0840 1.0000
34.5800 657.8679 1.0000
34.6000 689.0099 1.0000
34.6200 641.7523 1.0000
34.6400 699.4893 1.0000
34.6600 650.1813 1.0000
34.6800 676.0760 1.0000
34.7000 682.3433 1.0000
34.7200 682.0727 1.0000
34.7400 644.6017 1.0000
34.7600 673.9104 1.0000
34.7800 617.8170 1.0000
34.8000 675.0303 1.0000
34.8200 643.8990 1.0000
34.8400 661.8905 1.0000
34.8600 700.0052 1.0000
34.8800 673.2548 1.0000
34.9000 672.5024 1.0000
34.9200 689.6232 1.0000
34.9400 687.9684 1.0000
34.9600 697.3739 1.0000
34.9800 685.2033 1.0000
35.0000 672.1620 1.0000
35.0200 650.1721 1.0000
35.0400 650.5490 1.0000
35.0600 659.2665 1.0000
35.0800 641.6709 1.0000
35.1000 721.6438 1.0000
35.1200 670.6349 1.0000
35.1400 673.2240 1.0000
35.1600 678.6842 1.0000
35.1800 665.4341 1.0000
35.2000 645.3236 1.0000
35.2200 665.7687 1.0000
35.2400 699.5915 1.0000
35.2600 677.9980 1.0000
35.2800 647.6525 1.0000
35.3000 719.0323 1.0000
35.3200 660.1872 1.0000
35.3400 722.1832 1.0000
35.3600 628.9337 1.0000
35.3800 664.7128 1.0000
35.4000 656.9439 1.0000
35.4200 680.7047 1.0000
35.4400 678.3397 1.0000
35.4600 675.4090 1.0000
35.4800 707.6453 1.0000
35.5000 658.1250 1.0000
35.5200 687.2416 1.0000
35.5400 692.8245 1.0000
35.5600 679.6223 1.0000
35.5800 678.4420 1.0000
35.6000 693.2504 1.0000
35.6200 646.9590 1.0000
35.6400 676.1915 1.0000
35.6600 660.5085 1.0000
35.6800 648.6675 1.0000
35.7000 660.1960 1.0000
35.7200 678.4315 1.0000
35.7400 660.7434 1.0000
35.7600 721.8449 1.0000
35.7800 673.4637 1.0000
35.8000 696.4467 1.0000
